# Mains_Frequency_(Hz) =,60,,,,,,,,,,,,,,,,,,,,,,,,,,,,,,,,,,,,,,,,,,,,,,,,,,,,,,
# Sample_Frequency_(Hz) =,300,,,,,,,,,,,,,,,,,,,,,,,,,,,,,,,,,,,,,,,,,,,,,,,,,,,,,,
# Filter_Delay_(ms) =,40,0,,,,,,,,,,,,,,,,,,,,,,,,,,,,,,,,,,,,,,,,,,,,,,,,,,,,,
# Sensor_Data_Units =,uV,,,,,,,,,,,,,,,,,,,,,,,,,,,,,,,,,,,,,,,,,,,,,,,,,,,,,,
# Headset_Name =,DSI-24 SN:112,,,,,,,,,,,,,,,,,,,,,,,,,,,,,,,,,,,,,,,,,,,,,,,,,,,,,,
# Data_Logger =,DSI-Streamer-v.1.08.60,,,,,,,,,,,,,,,,,,,,,,,,,,,,,,,,,,,,,,,,,,,,,,,,,,,,,,
# Date =,25.10.2024,,,,,,,,,,,,,,,,,,,,,,,,,,,,,,,,,,,,,,,,,,,,,,,,,,,,,,
# Time =,12:17:18,,,,,,,,,,,,,,,,,,,,,,,,,,,,,,,,,,,,,,,,,,,,,,,,,,,,,,
# Patient_ID =,X M 01-JAN-0000 X,,,,,,,,,,,,,,,,,,,,,,,,,,,,,,,,,,,,,,,,,,,,,,,,,,,,,,
# Record_ID =,Startdate 0,,,,,,,,,,,,,,,,,,,,,,,,,,,,,,,,,,,,,,,,,,,,,,,,,,,,,,
StartdX EEGXXXXXXXXXXXXXXXXX XX X_X,,,,,,,,,,,,,,,,,,,,,,,,,,,,,,,,,,,,,,,,,,,,,,,,,,,,,,,
# Filter =,Non-Filtered,,,,,,,,,,,,,,,,,,,,,,,,,,,,,,,,,,,,,,,,,,,,,,,,,,,,,,
# Comments =,,,,,,,,,,,,,,,,,,,,,,,,,,,,,,,,,,,,,,,,,,,,,,,,,,,,,,,
# Reference location:,Pz,,,,,,,,,,,,,,,,,,,,,,,,,,,,,,,,,,,,,,,,,,,,,,,,,,,,,,
# Trigger Source,Wireless,,,,,,,,,,,,,,,,,,,,,,,,,,,,,,,,,,,,,,,,,,,,,,,,,,,,,,
# Channel_Number =,ch_1,ch_2,ch_3,ch_4,ch_5,ch_6,ch_7,ch_8,ch_9,ch_10,ch_11,ch_12,ch_13,ch_14,ch_15,ch_16,ch_17,ch_18,ch_19,ch_20,ch_21,ch_22,ch_23,ch_24,Trigger,Time_Offset,ADC_Status,ADC_Sequence,Event,Comments,,,,,,,,,,,,,,,,,,,,,,,,,
Time,P3,C3,F3,Fz,F4,C4,P4,Cz,CM,A1,Fp1,Fp2,T3,T5,O1,O2,X3,X2,F7,F8,X1,A2,T6,T4,Trigger,Time_Offset,ADC_Status,ADC_Sequence,Event,Comments,,,,,,,,,,,,,,,,,,,,,,,,,
0,33,196,8,-1349,7,-1772,4,-1392,0,-339,6,-294,6,-178,8,-886,2,-5557,5,372,0,-6,6,305,4,814,2,-3291,3,-1520,7,-267,3,-1,2,-15,6,-829,2,339,6,-3,0,1080,0,195,0,-1882,8,0,6,0,180,0, 
0,67,193,8,-1347,3,-1771,2,-1397,4,-346,8,-301,8,-187,8,-891,3,-5409,3,368,7,-9,3,306,6,832,2,-3299,1,-1527,3,-284,4,-1,5,-15,9,-838,2,329,4,-3,9,1079,1,183,6,-1895,4,0,12,0,181,0, 
0,100,195,0,-1349,4,-1769,1,-1393,5,-348,9,-296,4,-181,2,-888,0,-5187,0,372,3,-12,3,305,1,816,6,-3297,0,-1528,8,-269,4,-1,5,-15,6,-846,3,330,0,-3,9,1084,2,193,2,-1893,9,0,18,0,182,0, 
0,133,196,2,-1347,9,-1772,7,-1396,2,-347,4,-304,8,-182,4,-885,9,-4890,6,373,2,-7,5,294,3,831,0,-3293,7,-1522,5,-274,2,-1,2,-15,6,-834,9,322,8,-3,3,1077,0,187,8,-1891,5,0,24,0,183,0, 
0,167,198,9,-1347,9,-1775,1,-1391,4,-336,3,-299,1,-179,7,-886,5,-5038,8,378,0,0,3,304,2,833,4,-3291,3,-1518,0,-265,2,-1,2,-15,6,-818,7,326,4,-3,9,1076,1,190,8,-1890,0,0,30,0,184,0, 
0,200,203,7,-1340,1,-1768,5,-1383,0,-335,1,-297,6,-180,9,-881,1,-5261,1,384,0,6,6,321,0,850,8,-3291,3,-1523,1,-262,2,-1,2,-15,6,-820,2,344,1,-3,9,1077,3,196,2,-1894,5,0,36,0,185,0, 
0,233,201,0,-1339,8,-1766,7,-1383,3,-342,0,-300,3,-181,8,-882,3,-5483,4,390,0,8,1,320,1,850,2,-3292,5,-1528,5,-263,1,-1,5,-15,6,-830,1,346,8,-3,6,1082,1,195,9,-1882,8,0,42,0,186,0, 
0,267,203,4,-1339,5,-1767,0,-1382,7,-350,4,-301,2,-181,2,-878,1,-5557,5,377,7,7,5,323,7,837,6,-3302,4,-1530,3,-268,5,-1,5,-15,6,-824,4,354,9,-3,9,1089,0,193,2,-1880,4,0,48,0,187,0, 
0,300,204,9,-1342,5,-1769,7,-1379,4,-340,5,-292,2,-174,9,-878,4,-5187,0,386,4,12,3,330,6,839,4,-3295,5,-1517,1,-260,1,-1,5,-16,2,-810,0,351,6,-3,6,1090,8,201,3,-1883,7,0,54,0,188,0, 
0,333,199,5,-1351,2,-1776,6,-1389,3,-346,5,-299,1,-177,3,-888,3,-5038,8,378,9,-7,8,307,8,831,0,-3297,3,-1514,1,-261,0,-1,5,-15,6,-832,8,337,2,-3,9,1084,2,198,3,-1911,9,0,60,0,189,0, 
0,367,196,5,-1351,2,-1776,6,-1393,5,-347,4,-299,4,-180,0,-892,8,-5187,0,372,0,-5,1,302,1,837,6,-3309,9,-1521,3,-257,4,-1,8,-15,9,-830,7,336,0,-3,9,1075,5,207,0,-1893,6,0,66,0,190,0, 
0,400,196,5,-1348,8,-1781,1,-1392,3,-354,0,-303,9,-180,6,-892,5,-5261,1,376,2,2,1,293,7,828,9,-3309,9,-1510,5,-251,1,-1,2,-15,3,-828,9,334,2,-3,6,1076,7,217,5,-1900,5,0,72,0,191,0, 
0,433,197,4,-1356,0,-1790,4,-1399,8,-358,2,-309,6,-180,3,-896,7,-5557,5,376,5,-6,3,297,6,804,3,-3304,2,-1504,2,-238,5,-1,5,-15,6,-836,1,323,7,-3,3,1074,0,230,1,-1905,6,0,78,0,192,0, 
0,467,198,0,-1359,9,-1790,4,-1404,9,-367,2,-306,9,-175,2,-896,4,-5335,2,381,0,-9,0,303,0,809,4,-3295,8,-1501,8,-241,2,-1,5,-15,6,-836,7,330,9,-3,6,1079,1,224,7,-1892,4,0,84,0,193,0, 
0,500,197,4,-1356,6,-1786,8,-1404,6,-372,3,-309,6,-177,3,-894,0,-5261,1,379,2,-9,3,300,0,830,1,-3288,0,-1500,9,-254,7,-1,8,-15,9,-835,8,332,4,-3,3,1074,0,209,7,-1877,4,0,90,0,194,0, 
0,533,192,3,-1369,2,-1795,5,-1412,4,-367,2,-309,3,-179,1,-895,2,-5038,8,368,4,-19,2,290,1,817,5,-3303,6,-1502,1,-251,4,-1,5,-15,9,-839,7,325,2,-3,6,1063,8,219,0,-1877,7,0,96,0,195,0, 
0,567,200,7,-1362,9,-1788,3,-1403,4,-354,9,-301,8,-176,4,-891,9,-5038,8,377,7,-21,6,300,6,829,2,-3299,4,-1500,0,-248,1,-1,5,-15,9,-846,3,329,4,-3,3,1070,7,216,0,-1875,9,0,102,0,196,0, 
0,600,198,0,-1355,4,-1788,3,-1408,8,-363,0,-306,0,-172,5,-894,6,-5261,1,379,8,-18,3,292,2,840,6,-3299,1,-1501,8,-252,3,-1,5,-15,3,-850,2,320,4,-3,3,1063,5,215,1,-1878,6,0,108,0,197,0, 
0,633,200,4,-1347,0,-1784,1,-1404,6,-362,7,-306,0,-171,3,-891,0,-5483,4,383,4,-13,8,295,5,834,6,-3286,2,-1509,6,-256,8,-1,5,-15,6,-836,1,318,3,-3,9,1071,6,221,7,-1875,9,0,114,0,198,0, 
0,667,194,7,-1346,4,-1783,5,-1405,8,-360,6,-306,0,-176,7,-895,2,-5409,3,368,7,-16,2,289,8,832,8,-3275,7,-1508,4,-249,3,-1,2,-15,3,-832,2,317,7,-3,6,1062,0,220,5,-1900,2,0,120,0,199,0, 
0,700,192,6,-1354,8,-1784,4,-1406,1,-365,4,-300,6,-173,1,-894,6,-5261,1,376,8,-12,0,294,0,833,1,-3286,8,-1514,4,-251,4,-1,8,-15,3,-840,9,330,3,-3,9,1068,6,217,2,-1895,7,0,126,0,200,0, 
0,733,192,0,-1353,0,-1788,3,-1406,4,-361,8,-302,4,-174,3,-899,1,-5112,9,377,7,-15,0,292,5,829,5,-3288,0,-1503,9,-237,9,-1,5,-15,6,-844,5,325,5,-3,6,1079,4,216,6,-1884,3,0,132,0,201,0, 
0,767,192,3,-1350,9,-1784,4,-1401,9,-361,5,-302,4,-175,8,-892,5,-4964,7,371,7,-9,3,293,7,836,7,-3288,0,-1505,7,-243,0,-1,2,-15,6,-831,9,329,4,-3,9,1076,4,218,4,-1881,0,0,138,0,202,0, 
0,800,196,8,-1342,8,-1778,1,-1396,8,-360,6,-301,8,-177,0,-889,5,-5335,2,376,2,-7,5,301,8,845,7,-3288,3,-1503,0,-235,2,-1,5,-15,6,-831,6,335,7,-3,6,1081,2,217,5,-1899,3,0,144,0,203,0, 
0,833,195,3,-1353,0,-1780,2,-1395,6,-362,4,-300,9,-180,3,-893,4,-5409,3,384,0,0,0,305,7,815,4,-3290,1,-1505,4,-234,0,-1,5,-15,3,-827,1,344,1,-3,6,1082,7,227,1,-1885,5,0,150,0,204,0, 
0,867,198,3,-1335,9,-1781,4,-1397,1,-359,7,-298,8,-175,5,-891,0,-5483,4,382,8,-2,1,300,3,829,8,-3286,8,-1505,4,-241,8,-1,2,-15,9,-825,6,339,3,-3,9,1089,9,228,6,-1869,3,0,156,0,205,0, 
0,900,198,0,-1342,5,-1775,1,-1395,6,-360,3,-297,3,-178,8,-886,5,-5187,0,379,5,-1,8,315,0,840,9,-3275,4,-1503,6,-242,4,-1,5,-15,9,-821,7,347,4,-3,9,1095,9,216,6,-1872,0,0,162,0,206,0, 
0,933,192,0,-1349,1,-1774,8,-1398,0,-359,7,-296,4,-174,6,-891,0,-4964,7,382,5,-6,6,302,1,831,0,-3274,8,-1503,9,-240,9,-1,8,-15,6,-838,5,339,3,-3,3,1085,4,225,3,-1863,3,0,168,0,207,0, 
0,967,190,2,-1350,6,-1776,3,-1395,6,-348,3,-301,5,-178,8,-896,1,-4964,7,384,0,-1,8,297,9,826,8,-3275,7,-1500,9,-252,6,-1,5,-15,3,-828,0,332,7,-3,3,1082,7,214,2,-1865,4,0,174,0,208,0, 
0,1000,191,1,-1352,7,-1780,2,-1402,2,-363,9,-304,5,-183,9,-897,0,-5187,0,385,2,-3,6,301,8,830,4,-3274,5,-1498,5,-250,8,0,9,-15,6,-822,6,331,2,-3,6,1081,2,216,6,-1887,6,0,180,0,209,0, 
0,1033,193,5,-1352,7,-1776,0,-1395,9,-361,5,-309,9,-185,7,-888,9,-5705,7,386,1,-12,3,308,4,841,8,-3269,7,-1498,2,-248,1,-1,2,-15,6,-834,6,328,8,-3,6,1085,1,218,4,-1898,4,0,186,0,210,0, 
0,1067,189,0,-1351,8,-1779,9,-1400,7,-371,1,-315,3,-191,4,-890,4,-5483,4,385,5,-15,0,295,5,835,2,-3290,1,-1513,5,-251,1,-1,2,-15,3,-836,4,323,1,-3,6,1074,0,211,5,-1895,7,0,192,0,211,0, 
0,1100,188,1,-1347,0,-1784,1,-1403,1,-372,9,-311,7,-186,0,-893,1,-5261,1,369,0,-13,5,290,7,837,6,-3292,2,-1506,9,-243,6,-1,5,-15,3,-844,5,313,2,-3,3,1070,4,217,8,-1892,1,0,198,0,212,0, 
0,1133,188,1,-1360,8,-1788,9,-1404,0,-378,3,-312,9,-183,0,-893,4,-5038,8,357,3,-10,5,295,5,822,6,-3299,7,-1512,3,-246,0,-1,5,-15,3,-848,1,326,1,-3,6,1066,8,219,6,-1888,2,0,204,0,213,0, 
0,1167,186,0,-1361,1,-1789,5,-1398,9,-377,7,-311,7,-186,9,-896,4,-4964,7,376,8,-5,7,298,5,822,9,-3294,9,-1519,2,-276,6,-1,5,-15,6,-830,4,331,5,-3,9,1087,2,191,1,-1895,1,0,210,0,214,0, 
0,1200,186,0,-1362,3,-1789,5,-1397,7,-380,4,-311,7,-187,2,-893,7,-5261,1,378,3,-10,5,303,9,826,8,-3302,1,-1516,8,-269,7,-1,5,-15,6,-832,8,335,4,-3,6,1078,8,202,2,-1890,6,0,216,0,215,0, 
0,1233,188,7,-1366,2,-1792,5,-1401,9,-376,8,-312,6,-189,0,-895,8,-5557,5,375,0,-14,7,294,9,830,7,-3307,5,-1514,4,-256,5,-1,2,-15,6,-835,5,324,0,-3,9,1073,1,208,2,-1900,2,0,222,0,216,0, 
0,1267,188,1,-1359,9,-1793,7,-1407,6,-379,2,-313,2,-189,3,-897,3,-5483,4,362,4,-18,6,291,3,837,0,-3311,1,-1519,2,-260,4,-1,5,-15,0,-840,0,318,6,-3,6,1064,1,203,7,-1904,7,0,228,0,217,0, 
0,1300,190,2,-1358,1,-1789,2,-1401,0,-385,2,-314,1,-185,4,-892,5,-5261,1,375,0,-12,3,295,8,825,3,-3301,2,-1510,8,-258,9,-1,2,-15,6,-836,4,322,8,-3,6,1076,4,200,1,-1914,3,0,234,0,218,0, 
0,1333,185,4,-1360,5,-1790,1,-1409,4,-398,7,-316,2,-188,1,-897,6,-4964,7,361,8,-23,4,279,0,822,0,-3302,1,-1503,6,-253,5,-1,5,-15,3,-848,7,307,2,-3,6,1069,2,219,6,-1913,7,0,240,0,219,0, 
0,1367,187,5,-1359,6,-1788,6,-1407,3,-385,8,-316,5,-189,9,-896,1,-5038,8,374,1,-29,7,272,4,822,6,-3295,2,-1505,1,-255,6,-1,2,-15,6,-850,5,298,2,-3,9,1072,8,223,5,-1902,9,0,246,0,220,0, 
0,1400,191,7,-1357,8,-1782,6,-1403,4,-385,2,-313,5,-188,4,-894,3,-5335,2,376,2,-24,0,282,6,810,3,-3302,1,-1501,8,-253,8,-1,5,-15,9,-845,4,309,0,-3,3,1069,8,228,9,-1898,7,0,252,0,221,0, 
0,1433,189,3,-1361,7,-1791,6,-1410,9,-396,9,-314,7,-190,5,-898,2,-5557,5,365,4,-31,2,284,7,804,3,-3306,6,-1503,6,-246,3,-1,2,-15,3,-853,5,303,0,-3,6,1064,1,222,0,-1893,6,0,258,0,222,0, 
0,1467,192,3,-1352,1,-1788,3,-1408,5,-395,7,-316,2,-189,0,-897,3,-5557,5,365,1,-27,0,273,6,828,3,-3298,2,-1504,5,-258,3,-1,5,-15,6,-850,8,306,0,-3,3,1073,7,213,6,-1893,0,0,264,0,223,0, 
0,1500,192,3,-1351,8,-1791,9,-1404,3,-387,0,-309,9,-189,6,-893,1,-5261,1,375,9,-22,8,271,5,833,4,-3297,3,-1515,0,-261,3,-1,2,-15,6,-849,3,301,5,-3,3,1077,9,214,2,-1894,8,0,270,0,224,0, 
0,1533,199,8,-1348,2,-1792,2,-1398,9,-384,6,-307,8,-185,1,-892,5,-4890,6,373,5,-20,7,270,6,840,3,-3292,8,-1504,8,-260,7,-1,2,-15,3,-836,7,310,5,-3,3,1079,7,215,7,-1880,4,0,276,0,225,0, 
0,1567,197,1,-1356,9,-1796,4,-1398,9,-382,5,-304,5,-183,0,-893,4,-4964,7,376,8,-14,1,291,9,828,0,-3291,0,-1505,4,-254,7,-1,5,-15,6,-836,7,315,6,-3,6,1079,1,214,2,-1868,7,0,282,0,226,0, 
0,1600,193,8,-1359,3,-1797,6,-1404,9,-388,2,-303,3,-184,2,-899,7,-5261,1,374,4,-22,5,291,0,820,5,-3292,2,-1505,7,-254,4,-1,5,-15,0,-843,6,317,1,-3,6,1065,9,217,2,-1872,6,0,288,0,227,0, 
0,1633,197,7,-1352,7,-1800,0,-1406,4,-387,0,-310,5,-186,3,-900,9,-5483,4,369,3,-25,2,287,4,831,6,-3298,2,-1507,5,-244,8,-1,5,-15,6,-849,3,312,3,-3,0,1072,5,222,9,-1888,5,0,294,0,228,0, 
0,1667,195,0,-1348,8,-1805,4,-1411,2,-387,9,-318,0,-180,3,-904,5,-5409,3,373,8,-24,0,282,0,831,0,-3293,1,-1503,6,-243,6,-1,5,-16,2,-847,8,309,6,-3,9,1079,4,229,8,-1893,3,0,300,0,229,0, 
0,1700,195,0,-1349,4,-1800,9,-1408,2,-385,5,-309,9,-182,7,-899,4,-5187,0,369,6,-18,6,294,3,822,0,-3295,5,-1511,4,-249,9,-1,2,-15,3,-843,3,321,6,-3,6,1078,2,228,6,-1889,1,0,306,0,230,0, 
0,1733,196,8,-1342,8,-1793,7,-1401,9,-381,6,-307,5,-183,6,-904,5,-5112,9,378,3,-8,7,289,5,843,0,-3282,0,-1517,7,-265,8,-1,2,-15,6,-842,1,319,8,-4,5,1078,8,228,9,-1883,7,0,312,0,231,0, 
0,1767,199,5,-1338,6,-1785,6,-1397,4,-376,2,-307,5,-186,0,-900,0,-4964,7,387,3,-3,3,300,6,842,1,-3285,3,-1520,7,-266,1,-1,2,-15,6,-827,4,334,2,-3,6,1083,6,224,1,-1883,7,0,318,0,232,0, 
0,1800,197,4,-1343,4,-1784,4,-1397,7,-377,4,-307,8,-183,3,-893,7,-5335,2,387,6,-13,8,294,9,838,8,-3276,9,-1515,6,-257,4,-1,5,-15,6,-837,9,324,6,-3,6,1084,2,231,0,-1885,5,0,324,0,233,0, 
0,1833,198,6,-1337,4,-1774,8,-1388,1,-364,5,-305,4,-185,7,-888,0,-5483,4,384,9,8,1,304,5,855,0,-3282,3,-1518,0,-253,2,-1,8,-15,6,-826,2,320,7,-3,6,1088,7,223,2,-1904,4,0,330,0,234,0, 
0,1867,199,2,-1340,4,-1781,4,-1383,6,-357,0,-300,6,-185,7,-887,1,-5335,2,388,8,14,7,317,7,843,9,-3281,1,-1512,9,-252,6,-1,8,-15,6,-816,3,332,1,-3,6,1095,9,216,3,-1886,1,0,336,0,235,0, 
0,1900,196,8,-1343,7,-1781,1,-1394,1,-370,2,-299,7,-187,2,-887,4,-5187,0,372,3,6,9,310,5,843,0,-3288,3,-1517,4,-250,5,-1,2,-15,3,-822,3,334,5,-3,6,1085,1,216,6,-1873,2,0,342,0,236,0, 
0,1933,201,0,-1341,9,-1777,8,-1393,2,-368,4,-300,6,-186,6,-887,4,-5038,8,366,9,0,6,293,4,846,3,-3290,1,-1515,9,-254,4,-1,5,-15,6,-836,1,324,0,-3,6,1077,6,218,4,-1872,3,0,348,0,237,0, 
0,1967,196,5,-1339,8,-1780,8,-1391,7,-375,0,-302,1,-180,3,-889,8,-4964,7,367,5,-4,5,302,1,831,6,-3288,3,-1507,5,-233,1,-1,8,-15,3,-835,2,329,7,-3,6,1071,9,240,9,-1877,7,0,354,0,238,0, 
0,2000,196,8,-1342,5,-1783,2,-1391,1,-371,4,-309,0,-182,4,-891,9,-5335,2,367,2,-9,9,303,6,832,2,-3291,9,-1509,9,-246,6,-1,2,-15,0,-835,2,328,5,-3,6,1068,9,234,0,-1875,6,0,360,0,239,0, 
0,2033,191,7,-1345,2,-1780,2,-1390,5,-366,3,-300,6,-183,3,-891,6,-5483,4,383,4,0,6,309,3,834,3,-3298,5,-1521,9,-256,8,0,9,-15,6,-826,2,334,5,-3,6,1075,5,232,8,-1889,1,0,366,0,240,0, 
0,2067,191,7,-1347,3,-1782,3,-1389,9,-373,2,-302,7,-182,4,-888,9,-5483,4,382,2,2,1,303,9,840,3,-3292,8,-1507,5,-264,3,-1,5,-15,0,-826,5,331,5,-3,9,1080,6,228,9,-1894,5,0,372,0,241,0, 
0,2100,197,7,-1348,2,-1790,1,-1394,7,-377,1,-306,6,-178,8,-889,8,-5187,0,376,2,-3,0,297,0,840,6,-3293,1,-1500,3,-251,4,-1,8,-15,9,-830,1,326,4,-3,6,1081,5,227,7,-1891,5,0,378,0,242,0, 
0,2133,195,3,-1342,2,-1790,4,-1396,8,-372,6,-306,0,-184,2,-890,1,-4964,7,378,3,-14,4,291,9,843,3,-3288,9,-1496,1,-249,6,0,9,-15,3,-831,3,320,4,-3,9,1082,4,228,0,-1884,6,0,384,0,243,0, 
0,2167,191,1,-1349,4,-1797,6,-1407,3,-379,5,-303,0,-184,5,-896,1,-5038,8,380,1,-15,9,288,9,851,1,-3287,1,-1503,3,-254,1,-1,8,-15,6,-843,6,308,1,-3,6,1076,7,230,4,-1889,4,0,390,0,244,0, 
0,2200,194,4,-1341,0,-1792,5,-1401,6,-384,6,-303,3,-184,2,-892,5,-5187,0,376,8,-9,9,290,1,858,0,-3282,0,-1499,1,-257,1,-1,5,-15,3,-846,3,311,4,-3,6,1075,8,223,2,-1895,4,0,396,0,245,0, 
0,2233,194,7,-1342,5,-1797,0,-1406,1,-394,8,-310,2,-185,1,-893,4,-5409,3,378,9,-20,1,291,6,854,4,-3286,2,-1498,2,-243,9,-1,5,-15,6,-844,2,318,0,-3,9,1074,6,222,0,-1906,8,0,402,0,246,0, 
0,2267,193,5,-1339,5,-1799,4,-1407,9,-400,5,-313,8,-189,3,-893,7,-5335,2,376,8,-12,3,291,6,842,4,-3278,4,-1487,4,-237,6,-1,2,-15,6,-836,7,314,1,-3,6,1071,3,225,9,-1918,2,0,408,0,247,0, 
0,2300,194,4,-1336,8,-1794,3,-1407,0,-399,3,-313,5,-194,7,-891,3,-5261,1,385,5,-14,1,291,6,851,7,-3283,8,-1497,3,-244,5,0,9,-15,6,-843,9,322,5,-3,6,1083,3,220,5,-1907,7,0,414,0,248,0, 
0,2333,198,6,-1338,9,-1793,7,-1405,2,-398,7,-313,8,-193,5,-894,0,-4964,7,390,3,-14,7,285,0,845,4,-3282,6,-1493,4,-248,7,-1,2,-15,3,-849,0,326,4,-3,9,1085,7,210,0,-1890,6,0,420,0,249,0, 
0,2367,196,2,-1344,3,-1795,2,-1405,8,-389,1,-308,1,-183,6,-896,1,-4964,7,379,2,-15,0,285,0,846,3,-3286,8,-1489,8,-239,4,-1,8,-15,6,-846,3,319,8,-3,6,1080,0,216,3,-1885,8,0,426,0,250,0, 
0,2400,192,3,-1348,5,-1800,9,-1410,0,-390,3,-306,3,-176,7,-892,8,-5187,0,366,3,-19,5,281,4,822,0,-3299,1,-1491,6,-221,4,-1,8,-15,3,-846,6,313,2,-3,9,1067,4,228,9,-1882,8,0,432,0,251,0, 
0,2433,186,9,-1356,0,-1800,3,-1408,2,-391,8,-308,4,-183,3,-889,8,-5483,4,366,0,-13,8,294,6,818,7,-3301,5,-1500,6,-223,2,-1,2,-15,3,-846,9,315,9,-3,6,1068,3,230,7,-1896,3,0,438,0,252,0, 
0,2467,190,8,-1346,1,-1788,0,-1397,1,-382,5,-304,8,-183,3,-879,0,-5483,4,383,4,-4,2,305,7,830,4,-3297,9,-1509,9,-260,1,-1,8,-15,9,-828,0,328,2,-3,9,1076,1,215,7,-1909,2,0,444,0,253,0, 
0,2500,193,8,-1337,1,-1780,8,-1388,1,-373,8,-303,9,-189,9,-873,9,-5187,0,389,1,6,0,305,4,853,8,-3291,6,-1509,6,-275,1,-1,5,-15,3,-817,2,330,6,-3,3,1084,5,192,3,-1899,6,0,450,0,254,0, 
0,2533,199,2,-1338,3,-1779,0,-1385,7,-364,5,-302,4,-179,1,-874,8,-4964,7,392,7,8,7,308,1,856,8,-3291,9,-1509,3,-268,8,-1,2,-15,9,-816,9,345,6,-3,9,1093,2,204,3,-1891,2,0,456,0,255,0, 
0,2567,197,7,-1340,1,-1781,4,-1388,1,-365,7,-299,1,-182,4,-873,0,-5038,8,391,2,5,4,304,5,852,0,-3287,7,-1503,3,-257,4,-1,5,-15,3,-821,1,341,7,-3,6,1089,9,210,3,-1875,3,0,462,0,0,0, 
0,2600,195,0,-1347,3,-1786,2,-1395,0,-365,4,-301,2,-178,5,-875,7,-5112,9,383,7,-9,3,305,4,849,0,-3299,7,-1509,9,-246,6,-1,8,-15,9,-836,1,333,6,-3,6,1089,3,205,5,-1876,5,0,468,0,1,0, 
0,2633,195,0,-1347,6,-1785,0,-1391,4,-366,6,-301,5,-181,8,-874,5,-5409,3,387,0,-6,6,308,1,845,1,-3299,4,-1511,4,-249,9,-1,5,-15,6,-832,2,330,9,-3,3,1077,9,216,3,-1884,9,0,474,0,2,0, 
0,2667,202,2,-1339,5,-1785,9,-1394,7,-363,6,-305,1,-177,9,-875,4,-5557,5,377,7,-12,0,292,2,836,1,-3294,6,-1509,0,-252,9,-1,2,-15,6,-838,8,313,2,-3,9,1082,7,217,5,-1896,3,0,480,0,3,0, 
0,2700,201,3,-1341,0,-1786,5,-1399,5,-368,1,-307,8,-181,8,-877,5,-5261,1,384,6,-3,3,285,9,838,5,-3289,2,-1506,9,-254,4,-1,2,-15,3,-837,9,309,3,-3,6,1087,2,214,8,-1904,4,0,486,0,4,0, 
0,2733,196,8,-1346,4,-1779,0,-1397,7,-361,2,-306,0,-174,9,-873,3,-4964,7,387,9,8,4,303,9,839,1,-3290,7,-1509,9,-248,4,-1,2,-15,6,-820,2,327,9,-3,9,1095,3,221,1,-1885,8,0,492,0,5,0, 
0,2767,195,6,-1351,2,-1785,3,-1402,5,-373,8,-301,8,-174,9,-875,4,-5038,8,381,9,9,9,307,8,837,9,-3295,2,-1507,2,-247,2,-1,5,-15,9,-816,3,330,0,-3,6,1083,0,224,7,-1883,7,0,498,0,6,0, 
0,2800,191,7,-1359,3,-1791,6,-1408,8,-380,7,-307,5,-183,0,-879,0,-5335,2,380,1,-9,9,286,5,831,3,-3300,0,-1503,3,-255,0,-1,2,-15,6,-830,1,316,5,-3,9,1068,6,217,5,-1923,3,0,504,0,7,0, 
0,2833,188,4,-1360,5,-1790,7,-1405,5,-364,2,-308,4,-181,2,-880,2,-5557,5,378,9,-14,7,292,2,830,4,-3290,7,-1501,2,-258,9,-1,2,-15,6,-832,8,320,4,-3,6,1069,2,224,1,-1893,6,0,510,0,8,0, 
0,2867,186,3,-1357,5,-1785,3,-1405,5,-358,2,-306,9,-183,0,-886,5,-5409,3,373,2,-12,3,305,4,839,1,-3301,2,-1505,7,-243,0,-1,5,-15,3,-826,8,327,3,-3,6,1071,9,227,4,-1887,6,0,516,0,9,0, 
0,2900,187,5,-1356,9,-1778,4,-1399,2,-353,1,-303,6,-183,0,-880,8,-5335,2,385,8,-4,5,300,9,842,1,-3296,7,-1511,4,-252,9,-1,5,-15,6,-826,2,324,9,-3,6,1078,8,218,4,-1881,0,0,522,0,10,0, 
0,2933,189,3,-1353,9,-1779,6,-1397,1,-336,0,-302,7,-181,8,-876,9,-4964,7,390,3,4,2,303,0,847,5,-3297,9,-1509,0,-256,8,0,9,-15,6,-823,8,322,8,-3,3,1088,4,209,1,-1874,4,0,528,0,11,0, 
0,2967,193,5,-1352,4,-1786,8,-1398,3,-337,2,-303,3,-178,5,-874,8,-5112,9,385,2,-3,0,297,0,851,7,-3292,2,-1507,2,-250,2,-1,2,-15,3,-825,9,318,6,-3,6,1082,7,213,9,-1868,7,0,534,0,12,0, 
0,3000,193,2,-1356,3,-1782,6,-1402,5,-337,8,-306,9,-185,1,-884,7,-5261,1,391,2,-8,4,291,0,826,5,-3291,3,-1501,5,-248,1,-1,2,-15,6,-841,8,308,1,-3,9,1080,9,216,0,-1882,5,0,540,0,13,0, 
0,3033,192,0,-1362,3,-1784,7,-1401,0,-324,3,-308,7,-184,8,-878,4,-5483,4,390,9,-10,8,294,0,845,1,-3288,3,-1506,9,-255,6,-1,5,-15,3,-828,6,311,1,-3,6,1074,0,217,5,-1893,0,0,546,0,14,0, 
0,3067,190,8,-1365,0,-1783,8,-1404,0,-319,8,-312,6,-188,4,-880,5,-5557,5,382,2,-9,6,280,2,843,9,-3289,2,-1503,0,-253,8,-1,5,-15,6,-830,1,310,8,-3,6,1077,6,223,5,-1891,2,0,552,0,15,0, 
0,3100,192,0,-1366,2,-1777,2,-1403,4,-313,2,-314,1,-189,0,-880,2,-5261,1,382,5,-6,0,293,1,838,2,-3288,0,-1505,4,-257,4,-1,8,-15,3,-839,1,309,6,-3,9,1082,7,215,4,-1888,2,0,558,0,16,0, 
0,3133,193,5,-1365,0,-1775,7,-1400,1,-309,9,-304,8,-176,1,-879,6,-5038,8,392,7,-6,3,309,0,840,0,-3285,3,-1500,0,-253,5,-1,2,-15,6,-830,4,327,3,-3,6,1086,3,224,7,-1876,2,0,564,0,17,0, 
0,3167,195,6,-1370,7,-1789,8,-1403,1,-315,3,-305,7,-179,4,-878,7,-5038,8,389,7,-5,1,301,8,848,1,-3287,4,-1499,1,-260,1,-1,5,-15,6,-824,4,329,4,-3,9,1086,6,227,1,-1884,9,0,570,0,18,0, 
0,3200,190,5,-1379,4,-1802,1,-1410,9,-320,7,-312,9,-183,0,-883,5,-5112,9,376,2,-14,4,295,5,847,2,-3286,8,-1497,6,-260,4,0,9,-15,3,-827,1,321,3,-3,9,1083,9,224,4,-1895,1,0,576,0,19,0, 
0,3233,190,8,-1379,4,-1797,6,-1407,3,-315,9,-311,4,-177,6,-879,0,-5557,5,378,9,-15,6,294,9,839,1,-3284,1,-1500,0,-257,7,-1,2,-15,9,-827,1,325,2,-3,9,1091,7,228,9,-1892,1,0,582,0,20,0, 
0,3267,192,6,-1380,0,-1794,0,-1407,9,-310,5,-309,6,-186,0,-881,1,-5483,4,387,0,-11,1,300,6,830,4,-3277,8,-1495,2,-254,1,-1,2,-15,9,-840,0,325,8,-3,9,1093,8,232,5,-1876,2,0,588,0,21,0, 
0,3300,194,1,-1380,9,-1792,2,-1409,4,-296,1,-306,6,-176,7,-876,3,-5261,1,402,9,-8,7,306,9,834,0,-3268,8,-1489,8,-254,1,-2,1,-15,9,-826,2,331,5,-3,6,1087,2,237,9,-1875,0,0,594,0,22,0, 
0,3333,193,8,-1374,3,-1793,7,-1409,7,-302,4,-307,5,-180,6,-880,8,-4890,6,390,0,-10,5,303,6,848,7,-3270,3,-1491,6,-246,9,-1,5,-15,3,-820,8,324,3,-3,6,1087,2,235,5,-1886,1,0,600,0,23,0, 
0,3367,195,3,-1371,3,-1788,3,-1407,3,-296,4,-308,7,-180,3,-877,2,-5187,0,389,1,-5,7,305,1,854,1,-3264,0,-1490,4,-246,9,-1,5,-15,3,-828,3,325,8,-4,2,1091,4,238,5,-1902,3,0,606,0,24,0, 
0,3400,192,9,-1377,6,-1785,9,-1407,9,-294,6,-310,8,-183,9,-882,6,-5187,0,387,0,-4,8,301,8,845,4,-3262,2,-1490,1,-248,1,0,9,-15,6,-832,8,327,0,-3,6,1092,6,231,9,-1889,1,0,612,0,25,0, 
0,3433,195,3,-1377,3,-1786,5,-1404,3,-287,7,-309,6,-182,1,-878,4,-5483,4,394,5,-4,2,303,0,854,1,-3263,4,-1486,8,-248,7,-1,5,-15,9,-824,7,326,1,-3,6,1091,1,227,4,-1872,9,0,618,0,26,0, 
0,3467,192,0,-1375,8,-1785,0,-1409,1,-292,8,-314,1,-186,9,-879,0,-5483,4,381,3,-16,8,297,6,845,7,-3266,1,-1494,9,-258,3,-1,2,-15,6,-833,1,317,4,-3,3,1080,3,222,0,-1890,9,0,624,0,27,0, 
0,3500,193,5,-1381,2,-1785,3,-1404,0,-294,6,-317,7,-186,0,-879,0,-5187,0,381,6,-12,3,295,8,826,8,-3261,3,-1497,0,-254,4,-1,5,-15,6,-835,8,317,7,-3,9,1079,1,225,6,-1911,0,0,630,0,28,0, 
0,3533,195,3,-1375,8,-1779,9,-1403,1,-286,2,-312,3,-181,2,-877,2,-5112,9,380,4,1,5,295,5,838,2,-3258,3,-1496,4,-251,4,-1,5,-15,6,-823,2,322,5,-3,3,1084,8,226,5,-1902,3,0,636,0,29,0, 
0,3567,194,4,-1376,1,-1783,2,-1404,6,-287,4,-311,4,-186,9,-881,1,-4890,6,376,8,-8,4,292,2,842,7,-3268,2,-1497,3,-253,8,-1,2,-15,6,-829,2,315,9,-3,6,1078,2,218,4,-1900,8,0,642,0,30,0, 
0,3600,190,8,-1377,9,-1784,1,-1408,2,-289,5,-312,6,-186,0,-879,6,-5261,1,370,8,-18,6,291,3,840,9,-3267,6,-1506,6,-260,4,0,9,-15,9,-833,1,310,2,-3,0,1076,7,215,7,-1902,9,0,648,0,31,0, 
0,3633,189,6,-1380,0,-1789,8,-1416,6,-296,4,-315,6,-185,4,-879,9,-5557,5,370,5,-25,2,276,0,805,5,-3269,7,-1500,6,-262,2,-1,5,-15,6,-847,8,293,1,-3,9,1058,4,217,5,-1895,7,0,654,0,32,0, 
0,3667,187,5,-1388,7,-1794,6,-1421,4,-300,9,-317,7,-185,1,-878,7,-5335,2,370,5,-26,7,270,9,808,2,-3265,5,-1497,9,-255,0,-1,2,-15,6,-858,3,300,6,-3,9,1062,0,218,1,-1893,0,0,660,0,33,0, 
0,3700,183,9,-1393,2,-1801,2,-1422,3,-299,7,-318,3,-181,5,-879,0,-5187,0,356,4,-34,5,268,2,813,3,-3259,8,-1497,0,-250,2,-1,5,-15,6,-858,9,297,9,-3,6,1054,5,222,0,-1913,7,0,666,0,34,0, 
0,3733,182,7,-1398,9,-1804,2,-1427,4,-307,2,-326,1,-179,4,-881,1,-5038,8,357,3,-39,9,270,9,827,1,-3258,0,-1485,3,-238,5,-1,2,-15,6,-859,5,290,1,-3,3,1046,4,228,3,-1935,6,0,672,0,35,0, 
0,3767,185,4,-1393,2,-1803,9,-1427,1,-305,1,-326,1,-183,0,-884,4,-5112,9,360,3,-38,7,274,2,815,4,-3264,6,-1499,1,-250,8,0,9,-15,3,-858,9,298,5,-3,9,1064,1,215,7,-1930,8,0,678,0,36,0, 
0,3800,185,1,-1389,0,-1802,1,-1422,6,-301,8,-319,5,-184,5,-879,0,-5261,1,376,8,-26,4,277,8,824,4,-3262,5,-1502,4,-263,4,0,9,-15,6,-848,7,300,0,-3,3,1071,6,210,0,-1925,4,0,684,0,37,0, 
0,3833,188,1,-1381,8,-1794,9,-1419,6,-297,9,-319,2,-180,3,-877,2,-5557,5,372,3,-19,5,283,8,839,7,-3256,8,-1505,1,-262,2,-1,5,-15,6,-840,0,304,8,-3,9,1071,9,222,6,-1917,6,0,690,0,38,0, 
0,3867,184,8,-1385,4,-1796,4,-1422,0,-305,4,-320,7,-183,9,-882,6,-5409,3,369,3,-23,4,280,5,833,7,-3260,4,-1495,2,-248,1,-1,2,-15,9,-835,8,300,6,-3,9,1064,4,231,0,-1910,4,0,696,0,39,0, 
0,3900,186,9,-1381,8,-1789,2,-1416,3,-294,3,-309,6,-172,2,-875,1,-5187,0,381,9,-17,1,281,7,833,7,-3255,3,-1495,8,-230,1,-1,2,-15,3,-834,3,309,6,-3,6,1080,6,246,9,-1891,2,0,702,0,40,0, 
0,3933,189,6,-1378,5,-1782,9,-1414,5,-285,6,-307,5,-170,1,-874,2,-4964,7,380,1,-14,7,282,9,840,9,-3255,6,-1500,6,-240,0,0,9,-15,3,-831,9,301,2,-3,6,1077,6,244,8,-1866,9,0,708,0,41,0, 
0,3967,189,0,-1375,5,-1782,9,-1410,9,-278,7,-305,1,-172,2,-875,1,-5038,8,375,9,-15,0,285,9,841,2,-3257,7,-1496,1,-244,8,-1,5,-15,9,-832,5,310,5,-3,9,1085,1,243,0,-1868,7,0,714,0,42,0, 
0,4000,190,5,-1374,9,-1785,3,-1411,2,-279,3,-304,8,-179,7,-870,9,-5261,1,378,3,-17,7,295,5,832,8,-3248,1,-1495,2,-259,8,-1,5,-15,3,-837,0,318,3,-3,6,1085,7,231,3,-1875,6,0,720,0,43,0, 
0,4033,197,4,-1371,6,-1778,7,-1407,9,-279,6,-298,8,-185,4,-861,6,-5483,4,396,3,-17,1,304,2,842,1,-3240,3,-1500,0,-277,5,-1,5,-15,6,-834,3,321,9,-3,9,1081,8,227,1,-1862,1,0,726,0,44,0, 
0,4067,194,7,-1377,6,-1777,8,-1406,7,-283,8,-300,6,-186,3,-860,4,-5409,3,394,2,-13,2,295,8,827,7,-3256,8,-1505,4,-267,3,-1,5,-15,9,-836,4,317,4,-3,9,1095,6,222,9,-1872,9,0,732,0,45,0, 
0,4100,192,0,-1377,0,-1787,4,-1413,9,-285,9,-304,8,-182,7,-868,5,-5261,1,362,7,-23,7,289,8,804,3,-3257,4,-1506,6,-254,1,-1,2,-15,3,-843,0,313,2,-3,6,1092,0,237,3,-1884,9,0,738,0,46,0, 
0,4133,192,3,-1383,9,-1788,6,-1415,4,-288,3,-305,7,-186,0,-874,5,-4964,7,372,0,-24,0,288,0,813,3,-3255,3,-1502,1,-253,2,-1,2,-15,9,-847,2,314,1,-3,9,1070,1,232,5,-1906,5,0,744,0,47,0, 
0,4167,190,8,-1385,1,-1800,3,-1417,2,-293,7,-314,7,-189,6,-880,2,-5038,8,378,9,-24,9,283,5,822,9,-3247,8,-1503,9,-258,6,-1,2,-15,9,-845,1,311,4,-3,9,1068,6,234,6,-1911,6,0,750,0,48,0, 
0,4200,190,8,-1385,4,-1793,1,-1410,0,-285,6,-309,3,-185,7,-871,8,-5409,3,386,7,-16,8,284,4,819,0,-3255,9,-1506,6,-259,5,-1,2,-15,6,-834,3,319,5,-3,9,1082,4,240,3,-1909,8,0,756,0,49,0, 
0,4233,192,6,-1377,3,-1786,2,-1404,9,-278,7,-306,3,-181,5,-868,8,-5557,5,388,8,-11,4,297,6,826,8,-3253,5,-1508,4,-271,5,-1,5,-15,6,-830,4,323,7,-4,2,1096,8,231,3,-1894,2,0,762,0,50,0, 
0,4267,190,8,-1382,7,-1789,2,-1410,6,-284,7,-308,4,-182,1,-870,6,-5483,4,389,4,-12,0,290,1,823,8,-3252,0,-1509,3,-263,7,-1,8,-15,3,-831,9,315,3,-4,2,1083,9,234,9,-1883,7,0,768,0,51,0, 
0,4300,195,0,-1375,5,-1783,8,-1407,9,-284,1,-307,2,-177,9,-866,7,-5112,9,387,6,-13,5,286,2,844,8,-3261,9,-1511,1,-264,9,-1,8,-15,9,-825,6,309,3,-3,3,1083,6,229,5,-1875,9,0,774,0,52,0, 
0,4333,194,1,-1378,8,-1783,2,-1407,3,-280,5,-302,4,-178,5,-860,4,-4964,7,387,3,-8,7,288,6,832,2,-3262,2,-1512,6,-264,6,-1,5,-15,9,-824,7,300,9,-3,6,1089,3,233,7,-1864,2,0,780,0,53,0, 
0,4367,192,0,-1381,8,-1785,9,-1416,3,-291,3,-299,1,-173,1,-864,3,-5038,8,390,9,-22,5,287,4,828,9,-3254,7,-1505,7,-253,2,-1,2,-15,9,-837,9,306,0,-3,6,1083,3,229,8,-1857,3,0,786,0,54,0, 
0,4400,194,4,-1373,7,-1779,9,-1414,5,-284,1,-299,7,-175,2,-864,6,-5261,1,384,0,-25,8,291,0,839,7,-3250,8,-1503,9,-254,7,-1,8,-15,6,-840,9,305,1,-3,9,1070,1,226,8,-1883,7,0,792,0,55,0, 
0,4433,197,4,-1365,6,-1776,0,-1409,1,-287,1,-309,9,-179,7,-861,9,-5409,3,383,4,-13,8,291,3,834,9,-3254,1,-1503,9,-261,0,-1,2,-15,6,-842,1,311,1,-4,2,1072,8,228,3,-1898,7,0,798,0,56,0, 
0,4467,194,7,-1372,5,-1778,1,-1408,2,-279,9,-299,4,-174,9,-860,7,-5409,3,391,8,-6,9,292,8,816,3,-3245,1,-1503,9,-264,0,-1,5,-15,6,-842,1,313,8,-3,9,1089,6,232,5,-1875,9,0,804,0,57,0, 
0,4500,200,4,-1372,2,-1777,2,-1401,9,-287,7,-300,3,-173,1,-858,9,-5261,1,396,0,-4,8,302,1,832,2,-3239,4,-1503,3,-258,6,-1,2,-15,3,-827,4,317,1,-3,6,1093,8,232,5,-1864,2,0,810,0,58,0, 
0,4533,195,3,-1372,5,-1782,9,-1409,1,-292,2,-302,7,-175,5,-861,0,-4964,7,391,2,-10,8,300,9,843,6,-3238,8,-1494,3,-248,4,-1,2,-15,6,-827,1,321,3,-3,3,1085,4,232,5,-1866,3,0,816,0,59,0, 
0,4567,193,2,-1373,1,-1785,9,-1405,8,-299,1,-302,4,-174,6,-867,6,-4890,6,384,6,-12,6,301,5,833,1,-3239,7,-1492,8,-249,3,-1,5,-15,6,-822,0,319,8,-3,6,1076,7,240,9,-1896,3,0,822,0,60,0, 
0,4600,193,5,-1376,7,-1780,8,-1402,5,-293,1,-304,8,-180,3,-865,8,-5261,1,395,7,-5,7,300,3,826,8,-3239,4,-1492,8,-250,5,-1,5,-15,6,-821,7,322,5,-3,6,1081,2,239,4,-1893,9,0,828,0,61,0, 
0,4633,196,5,-1372,5,-1775,4,-1397,7,-290,7,-301,5,-177,0,-866,4,-5557,5,402,0,-8,4,301,2,834,9,-3237,6,-1488,9,-254,7,-1,2,-15,9,-817,2,319,5,-3,9,1086,3,235,8,-1889,1,0,834,0,62,0, 
0,4667,196,8,-1371,9,-1776,9,-1396,5,-287,7,-303,9,-173,7,-861,9,-5483,4,396,3,-6,3,291,9,839,7,-3231,6,-1484,7,-255,3,-1,5,-16,2,-820,5,317,4,-3,6,1089,0,235,8,-1884,9,0,840,0,63,0, 
0,4700,189,9,-1377,3,-1780,5,-1396,5,-297,3,-301,8,-177,3,-866,1,-5335,2,387,6,-13,2,295,5,832,5,-3239,7,-1488,9,-256,2,-1,5,-15,9,-822,3,314,1,-3,6,1085,7,240,9,-1878,9,0,846,0,64,0, 
0,4733,190,5,-1376,4,-1779,0,-1398,3,-295,8,-298,5,-177,6,-866,7,-4890,6,384,9,-20,4,298,5,822,9,-3244,5,-1496,1,-255,9,-1,5,-15,6,-832,5,314,1,-3,6,1078,8,233,4,-1879,8,0,852,0,65,0, 
0,4767,186,3,-1381,5,-1785,6,-1410,9,-309,9,-305,4,-179,7,-874,5,-5112,9,390,6,-24,0,286,8,805,5,-3242,1,-1491,3,-252,6,-1,2,-15,9,-839,1,294,0,-3,6,1065,6,244,8,-1892,1,0,858,0,66,0, 
0,4800,188,1,-1383,3,-1788,0,-1414,2,-318,0,-313,8,-175,8,-877,2,-5261,1,388,5,-28,2,281,4,831,3,-3243,6,-1489,5,-239,1,-1,5,-15,3,-845,1,291,3,-3,9,1059,6,244,8,-1902,9,0,864,0,67,0, 
0,4833,192,0,-1379,1,-1782,0,-1406,1,-309,3,-303,6,-173,4,-869,7,-5557,5,368,4,-17,7,288,3,830,7,-3238,8,-1490,1,-242,4,-1,8,-15,9,-834,9,312,3,-4,2,1080,6,234,6,-1886,4,0,870,0,68,0, 
0,4867,191,4,-1373,4,-1782,0,-1399,8,-305,4,-302,7,-174,0,-869,1,-5335,2,370,5,-9,6,297,6,824,7,-3241,8,-1497,3,-272,4,-1,2,-15,3,-833,1,321,0,-3,6,1090,2,224,1,-1891,2,0,876,0,69,0, 
0,4900,187,5,-1379,1,-1783,5,-1404,6,-307,5,-300,6,-179,1,-868,2,-5261,1,377,7,-15,3,284,7,813,9,-3245,4,-1502,4,-274,2,0,9,-15,6,-836,4,315,0,-3,6,1081,2,224,4,-1897,5,0,882,0,70,0, 
0,4933,188,7,-1384,5,-1792,2,-1411,5,-303,0,-303,3,-180,0,-871,2,-4964,7,372,3,-23,4,280,8,814,8,-3238,8,-1491,6,-265,2,-1,2,-15,3,-850,5,304,2,-3,6,1075,5,219,0,-1903,2,0,888,0,71,0, 
0,4967,190,2,-1379,4,-1789,2,-1407,9,-298,5,-299,7,-174,3,-865,8,-5038,8,371,1,-23,4,284,1,826,5,-3240,3,-1490,1,-259,8,-1,5,-15,0,-846,0,306,3,-3,9,1076,1,231,3,-1890,0,0,894,0,72,0, 
0,5000,192,9,-1380,9,-1782,0,-1403,1,-303,9,-300,9,-174,9,-867,3,-5335,2,371,4,-23,1,287,1,811,5,-3244,8,-1487,4,-248,4,-1,2,-15,6,-841,2,305,1,-3,3,1067,4,239,4,-1884,9,0,900,0,73,0, 
0,5033,187,5,-1383,6,-1787,4,-1407,6,-319,5,-302,4,-177,3,-872,4,-5483,4,365,7,-27,6,280,2,807,0,-3248,4,-1483,8,-235,2,0,9,-15,6,-843,9,298,5,-3,9,1062,3,249,3,-1892,4,0,906,0,74,0, 
0,5067,190,5,-1376,7,-1790,7,-1405,2,-319,2,-304,5,-176,1,-875,1,-5483,4,381,0,-20,7,288,3,827,7,-3249,3,-1485,0,-250,8,-1,5,-15,9,-838,8,302,1,-3,6,1080,0,232,8,-1911,9,0,912,0,75,0, 
0,5100,201,3,-1365,0,-1776,6,-1395,0,-304,2,-303,0,-173,7,-865,8,-5187,0,395,7,-6,0,290,7,835,5,-3238,5,-1498,2,-275,7,-1,2,-15,6,-820,5,303,6,-3,3,1095,0,233,1,-1903,5,0,918,0,76,0, 
0,5133,200,4,-1374,6,-1780,5,-1396,5,-302,4,-307,2,-180,0,-867,6,-5038,8,396,0,-12,9,285,6,834,0,-3238,5,-1495,2,-284,4,-1,8,-15,9,-827,4,311,1,-3,6,1095,9,227,1,-1890,0,0,924,0,77,0, 
0,5167,198,3,-1373,1,-1787,1,-1404,6,-309,6,-310,2,-185,1,-866,7,-4890,6,390,6,-19,2,290,1,846,3,-3243,9,-1492,5,-275,4,-1,5,-15,6,-833,4,306,3,-3,9,1093,2,233,7,-1890,9,0,930,0,78,0, 
0,5200,198,6,-1374,3,-1784,4,-1399,5,-309,6,-308,7,-183,3,-867,6,-5335,2,399,9,-12,9,295,8,822,9,-3241,8,-1496,7,-274,5,-1,8,-15,0,-824,7,312,6,-3,9,1092,6,233,7,-1879,2,0,936,0,79,0, 
0,5233,194,1,-1373,7,-1781,4,-1397,4,-306,9,-308,7,-184,2,-865,8,-5483,4,407,4,-10,5,297,9,833,4,-3235,8,-1494,6,-269,4,-1,2,-15,6,-826,8,318,0,-3,6,1094,1,242,7,-1873,2,0,942,0,80,0, 
0,5267,196,2,-1376,1,-1777,8,-1398,6,-308,1,-301,8,-180,3,-866,4,-5483,4,409,5,-8,1,297,3,838,5,-3242,1,-1494,3,-264,0,-1,2,-15,6,-827,4,319,2,-3,6,1092,6,238,2,-1870,5,0,948,0,81,0, 
0,5300,194,4,-1377,6,-1784,7,-1401,6,-305,7,-304,2,-180,0,-868,5,-5112,9,396,3,-11,1,293,4,833,4,-3237,0,-1488,6,-264,0,-1,5,-15,9,-829,8,318,3,-3,6,1088,7,233,7,-1878,0,0,954,0,82,0, 
0,5333,196,2,-1371,6,-1783,8,-1395,6,-302,7,-295,8,-173,7,-862,5,-5038,8,395,7,-1,8,308,1,852,0,-3242,1,-1494,9,-261,0,-1,8,-15,3,-819,9,332,4,-3,6,1098,6,232,2,-1863,6,0,960,0,83,0, 
0,5367,202,5,-1372,8,-1786,8,-1400,1,-302,7,-294,6,-170,1,-861,6,-4890,6,404,4,-5,4,311,7,849,9,-3235,5,-1483,8,-257,1,-1,2,-15,9,-822,0,338,1,-3,6,1098,6,238,2,-1860,0,0,966,0,84,0, 
0,5400,200,4,-1364,4,-1781,1,-1396,2,-301,5,-293,7,-177,3,-866,1,-5335,2,408,0,-8,1,309,3,864,0,-3246,6,-1491,0,-258,0,-1,5,-15,6,-827,7,333,3,-3,9,1092,3,235,2,-1858,2,0,972,0,85,0, 
0,5433,196,5,-1369,8,-1783,5,-1404,0,-298,2,-296,1,-176,7,-868,5,-5483,4,403,8,-8,1,292,2,854,7,-3237,9,-1485,9,-243,3,-1,8,-15,6,-827,4,314,4,-3,9,1086,0,252,3,-1870,8,0,978,0,86,0, 
0,5467,192,3,-1370,1,-1777,2,-1400,7,-295,8,-297,3,-177,9,-867,9,-5483,4,402,3,-7,8,289,8,838,5,-3246,0,-1491,9,-249,9,-1,5,-15,6,-823,8,315,6,-3,6,1086,0,252,6,-1883,7,0,984,0,87,0, 
0,5500,196,2,-1364,7,-1777,5,-1398,3,-297,3,-299,7,-181,8,-864,3,-5112,9,405,3,-10,2,300,6,838,5,-3243,9,-1492,8,-254,1,-1,5,-15,9,-831,6,321,3,-3,6,1103,1,257,1,-1888,8,0,990,0,88,0, 
0,5533,198,9,-1355,1,-1775,4,-1397,1,-297,6,-299,7,-179,4,-859,2,-5112,9,416,1,-7,8,303,3,848,7,-3235,2,-1496,4,-267,0,-1,2,-15,3,-830,1,328,8,-3,9,1095,0,257,7,-1875,6,0,996,0,89,0, 
0,5567,197,4,-1363,8,-1780,2,-1401,3,-298,8,-304,2,-181,2,-857,1,-5038,8,409,2,-7,2,303,6,846,3,-3235,8,-1492,2,-265,2,0,9,-15,3,-819,3,328,5,-3,9,1096,2,249,3,-1890,6,0,1002,0,90,0, 
0,5600,193,5,-1368,0,-1778,4,-1402,2,-305,4,-304,8,-184,8,-860,7,-5261,1,399,9,-11,7,293,4,844,2,-3246,3,-1497,9,-261,6,-1,5,-15,6,-818,4,324,9,-3,3,1097,1,245,1,-1894,5,0,1008,0,91,0, 
0,5633,201,9,-1368,0,-1775,1,-1403,1,-304,2,-300,9,-180,3,-857,7,-5557,5,413,7,-17,1,283,5,852,6,-3230,7,-1491,3,-263,4,-1,8,-15,3,-825,9,313,5,-3,6,1092,3,246,3,-1881,0,0,1014,0,92,0, 
0,5667,197,7,-1370,4,-1785,0,-1405,5,-304,2,-297,6,-181,8,-861,6,-5409,3,397,8,-17,4,288,0,836,7,-3232,2,-1499,1,-261,3,-1,2,-15,0,-833,4,308,1,-4,2,1080,9,251,7,-1870,5,0,1020,0,93,0, 
0,5700,198,3,-1375,5,-1783,8,-1401,6,-297,6,-297,3,-176,4,-860,4,-5261,1,393,3,-6,6,297,0,841,2,-3236,1,-1501,2,-266,7,-1,8,-15,9,-837,3,313,2,-3,6,1080,3,239,4,-1880,7,0,1026,0,94,0, 
0,5733,198,3,-1370,1,-1785,0,-1406,1,-305,1,-300,3,-174,9,-860,4,-4964,7,389,7,-15,6,288,9,821,1,-3243,9,-1496,7,-259,8,-1,5,-15,3,-841,2,308,4,-3,9,1068,9,242,7,-1902,3,0,1032,0,95,0, 
0,5767,199,2,-1374,6,-1787,1,-1406,7,-306,9,-304,8,-182,1,-861,0,-5038,8,390,0,-20,4,285,3,829,5,-3236,7,-1496,1,-272,1,-1,2,-15,9,-838,2,301,5,-3,9,1072,8,238,5,-1907,4,0,1038,0,96,0, 
0,5800,201,0,-1371,3,-1784,1,-1400,7,-302,7,-307,2,-183,0,-860,4,-5335,2,386,7,-18,3,292,2,840,9,-3234,6,-1491,6,-263,7,-1,5,-15,3,-837,0,315,3,-3,6,1076,4,243,6,-1894,2,0,1044,0,97,0, 
0,5833,198,3,-1370,7,-1783,5,-1395,6,-298,2,-303,6,-182,7,-857,1,-5483,4,393,6,-7,5,300,0,830,7,-3237,6,-1494,6,-254,7,-1,2,-15,6,-825,6,323,4,-3,0,1080,9,251,1,-1896,3,0,1050,0,98,0, 
0,5867,196,2,-1374,6,-1785,9,-1398,9,-308,1,-309,3,-185,4,-858,0,-5409,3,391,5,-17,4,293,7,832,8,-3231,3,-1494,6,-260,1,-1,5,-16,2,-828,3,319,2,-3,9,1073,7,250,8,-1909,8,0,1056,0,99,0, 
0,5900,202,8,-1360,8,-1782,0,-1395,6,-302,4,-306,9,-184,8,-856,8,-5112,9,403,8,-14,7,296,4,848,4,-3236,4,-1497,0,-260,1,-1,5,-15,3,-825,3,321,0,-3,9,1079,1,242,1,-1901,7,0,1062,0,100,0, 
0,5933,197,4,-1368,3,-1790,4,-1408,2,-318,3,-314,7,-192,0,-867,9,-4964,7,385,5,-21,6,282,0,849,0,-3241,5,-1494,9,-260,7,0,9,-15,6,-832,8,306,9,-3,6,1063,2,241,5,-1911,6,0,1068,0,101,0, 
0,5967,195,0,-1371,3,-1788,9,-1410,6,-319,8,-315,9,-189,3,-870,3,-4964,7,377,1,-30,3,282,0,837,9,-3242,7,-1488,0,-245,4,-1,2,-15,3,-835,8,303,0,-3,6,1047,0,242,1,-1920,6,0,1074,0,102,0, 
0,6000,193,8,-1380,0,-1792,2,-1408,5,-316,2,-314,7,-198,0,-870,6,-5261,1,373,5,-25,8,283,2,831,3,-3244,2,-1493,4,-250,2,-1,5,-15,6,-837,9,310,2,-3,6,1051,2,236,1,-1919,1,0,1080,0,103,0, 
0,6033,201,6,-1361,1,-1772,7,-1388,7,-287,4,-302,1,-192,3,-859,2,-5483,4,408,6,1,5,294,0,847,8,-3235,5,-1507,2,-281,1,-1,5,-15,6,-816,0,327,3,-3,6,1080,0,212,1,-1902,6,0,1086,0,104,0, 
0,6067,204,3,-1359,0,-1773,3,-1387,5,-290,4,-303,3,-185,4,-857,4,-5409,3,411,0,2,4,299,1,850,8,-3244,2,-1503,3,-273,3,-1,2,-15,9,-814,5,319,8,-3,6,1080,3,225,3,-1907,7,0,1092,0,105,0, 
0,6100,202,2,-1367,7,-1776,0,-1389,6,-305,1,-310,8,-186,9,-861,3,-5187,0,408,9,4,5,305,7,845,4,-3241,5,-1497,9,-271,2,-1,2,-16,2,-813,9,320,4,-3,6,1077,3,223,5,-1923,6,0,1098,0,106,0, 
0,6133,196,2,-1371,9,-1784,7,-1399,2,-313,8,-317,4,-190,8,-866,1,-5112,9,401,4,-1,5,296,4,831,9,-3246,9,-1498,8,-278,1,-1,8,-15,3,-822,6,320,4,-3,6,1081,2,229,2,-1912,5,0,1104,0,107,0, 
0,6167,197,4,-1371,6,-1789,2,-1399,5,-316,5,-314,7,-191,4,-870,9,-4890,6,397,8,-9,6,299,1,830,7,-3235,5,-1498,5,-264,0,-1,2,-15,6,-828,6,323,7,-3,9,1081,8,225,0,-1913,1,0,1110,0,108,0, 
0,6200,193,8,-1374,0,-1794,0,-1410,0,-319,5,-317,1,-193,5,-874,8,-5335,2,402,3,-15,3,285,6,839,7,-3237,6,-1494,6,-265,2,-1,5,-15,9,-837,0,316,2,-3,3,1084,8,233,4,-1897,2,0,1116,0,109,0, 
0,6233,194,1,-1374,9,-1795,8,-1410,9,-308,4,-308,4,-188,4,-871,5,-5483,4,402,3,-12,0,288,0,840,0,-3232,8,-1495,2,-258,0,-1,5,-15,9,-825,9,320,4,-4,2,1094,4,238,5,-1878,6,0,1122,0,110,0, 
0,6267,193,5,-1374,3,-1792,8,-1408,8,-306,0,-303,9,-186,0,-872,4,-5483,4,402,3,-16,8,285,6,834,9,-3231,3,-1495,8,-251,4,-1,2,-15,6,-830,4,312,3,-3,6,1082,4,246,3,-1887,6,0,1128,0,111,0, 
0,6300,194,1,-1369,8,-1791,0,-1405,5,-305,4,-301,8,-181,2,-868,8,-5261,1,398,4,-14,1,291,9,834,3,-3233,4,-1501,8,-255,9,-1,5,-15,6,-829,8,320,7,-3,9,1082,4,247,5,-1887,9,0,1134,0,112,0, 
0,6333,197,1,-1369,2,-1790,1,-1404,6,-310,8,-307,5,-180,3,-865,5,-5038,8,397,5,-20,1,290,1,853,2,-3228,0,-1500,6,-257,1,-1,2,-15,3,-831,0,321,0,-3,3,1095,6,250,2,-1886,7,0,1140,0,113,0, 
0,6367,198,0,-1372,5,-1791,9,-1404,0,-306,3,-302,4,-177,9,-860,7,-5038,8,405,9,-13,5,295,5,840,6,-3230,1,-1495,5,-249,0,-1,2,-15,6,-822,6,321,6,-3,6,1103,4,250,8,-1866,6,0,1146,0,114,0, 
0,6400,190,2,-1377,0,-1792,8,-1405,8,-308,4,-300,0,-176,1,-868,5,-5112,9,399,9,-9,3,296,1,835,8,-3243,9,-1499,4,-249,6,-1,8,-15,6,-823,2,318,6,-3,3,1094,7,256,2,-1861,2,0,1152,0,115,0, 
0,6433,191,1,-1378,5,-1792,8,-1404,3,-303,6,-294,3,-178,8,-870,9,-5557,5,401,1,-11,7,279,9,846,6,-3248,1,-1506,9,-250,5,-1,2,-15,6,-829,5,311,4,-3,9,1086,3,255,0,-1861,8,0,1158,0,116,0, 
0,6467,194,7,-1372,8,-1791,3,-1404,3,-306,3,-300,9,-174,9,-872,4,-5631,6,393,0,-20,1,286,2,843,3,-3243,3,-1504,8,-249,3,-1,2,-15,6,-833,4,315,3,-3,3,1086,9,251,1,-1865,1,0,1164,0,117,0, 
0,6500,194,7,-1374,3,-1800,3,-1414,2,-307,8,-304,8,-179,7,-872,4,-5187,0,382,5,-30,0,285,6,837,0,-3252,0,-1503,9,-233,1,-1,5,-15,3,-846,3,306,9,-3,9,1071,3,257,7,-1870,8,0,1170,0,118,0, 
0,6533,186,3,-1379,7,-1798,2,-1417,5,-315,9,-312,9,-180,6,-878,4,-5112,9,378,9,-26,7,272,4,828,0,-3262,2,-1512,0,-234,9,-1,2,-15,6,-847,8,302,1,-3,6,1067,4,252,6,-1891,5,0,1176,0,119,0, 
0,6567,195,9,-1365,0,-1786,5,-1401,6,-305,1,-306,9,-178,8,-864,3,-5038,8,393,9,-14,1,290,4,837,3,-3253,8,-1510,8,-268,8,-2,1,-15,6,-829,8,325,2,-3,6,1080,6,224,7,-1891,5,0,1182,0,120,0, 
0,6600,194,1,-1371,3,-1787,7,-1405,8,-306,9,-306,9,-183,3,-867,0,-5187,0,389,4,-24,6,295,8,830,7,-3253,2,-1523,7,-291,0,-1,2,-15,3,-843,0,325,5,-3,6,1079,7,215,1,-1894,2,0,1188,0,121,0, 
0,6633,194,1,-1369,5,-1792,2,-1406,1,-304,5,-306,9,-186,0,-864,9,-5557,5,389,1,-24,0,281,7,836,4,-3261,9,-1530,3,-287,4,-1,2,-15,0,-844,2,312,3,-3,3,1076,7,214,5,-1892,4,0,1194,0,122,0, 
0,6667,192,6,-1373,4,-1798,2,-1408,5,-307,5,-309,3,-186,3,-863,1,-5557,5,388,2,-27,6,268,5,858,6,-3252,9,-1526,7,-283,2,-1,5,-15,6,-842,7,310,2,-3,9,1070,4,217,2,-1881,9,0,1200,0,123,0, 
0,6700,192,3,-1362,9,-1797,9,-1413,6,-313,8,-309,9,-188,7,-866,1,-5187,0,377,4,-34,8,279,9,842,4,-3274,2,-1529,7,-274,5,-1,2,-15,6,-844,5,315,0,-3,9,1067,4,215,1,-1886,1,0,1206,0,124,0, 
0,6733,198,6,-1369,8,-1792,8,-1407,9,-306,6,-304,2,-180,0,-860,7,-5112,9,375,0,-27,9,286,5,834,9,-3262,5,-1516,2,-266,4,-1,2,-15,3,-845,7,310,8,-3,6,1069,2,222,6,-1891,5,0,1212,0,125,0, 
0,6767,195,3,-1375,8,-1792,8,-1401,3,-302,1,-302,1,-181,5,-858,6,-5038,8,387,0,-17,7,282,9,831,3,-3249,9,-1509,6,-263,7,0,9,-15,6,-836,7,307,5,-4,2,1068,9,230,7,-1893,3,0,1218,0,126,0, 
0,6800,199,2,-1370,4,-1784,4,-1396,2,-293,4,-304,8,-184,5,-858,3,-5261,1,390,3,-13,2,286,5,837,3,-3246,9,-1499,1,-267,0,-1,5,-15,3,-829,5,308,4,-3,3,1069,5,231,3,-1892,1,0,1224,0,127,0, 
0,6833,203,7,-1362,3,-1772,7,-1390,2,-285,3,-298,5,-180,0,-852,6,-5557,5,407,4,-6,6,302,1,849,9,-3246,6,-1497,0,-261,0,-1,5,-15,3,-825,0,321,0,-3,6,1083,6,232,5,-1901,7,0,1230,0,128,0, 
0,6867,207,6,-1362,0,-1773,6,-1392,6,-293,7,-305,7,-185,7,-855,6,-5483,4,409,2,-8,4,308,1,833,4,-3244,2,-1495,2,-253,2,-1,5,-15,6,-833,1,326,4,-3,3,1083,6,230,1,-1876,8,0,1236,0,129,0, 
0,6900,205,5,-1366,2,-1776,0,-1389,3,-289,2,-304,5,-178,5,-858,6,-5187,0,403,5,-12,9,297,9,848,1,-3245,7,-1488,3,-249,3,-1,2,-15,6,-829,5,324,9,-3,6,1090,2,228,6,-1869,3,0,1242,0,130,0, 
0,6933,200,7,-1368,3,-1779,3,-1395,9,-297,9,-307,2,-177,3,-859,2,-4964,7,399,9,-12,0,287,7,852,6,-3252,3,-1491,3,-249,3,-1,5,-15,9,-834,6,321,3,-3,6,1072,5,229,8,-1882,8,0,1248,0,131,0, 
0,6967,204,9,-1364,4,-1776,9,-1394,1,-301,2,-306,3,-180,6,-859,5,-4964,7,400,5,-6,0,294,9,855,6,-3245,1,-1497,3,-249,6,-1,2,-15,3,-821,7,322,5,-3,9,1071,3,227,7,-1908,6,0,1254,0,132,0, 
0,7000,208,8,-1356,9,-1782,9,-1397,1,-305,7,-308,4,-174,0,-857,4,-5187,0,395,4,-13,8,289,5,863,1,-3246,6,-1492,8,-244,2,-1,2,-15,9,-829,5,318,6,-3,6,1073,1,239,1,-1917,6,0,1260,0,133,0, 
0,7033,204,6,-1356,3,-1774,5,-1387,2,-306,3,-304,8,-177,9,-853,2,-5483,4,405,3,-3,0,303,9,863,7,-3248,4,-1504,8,-258,0,-1,5,-15,3,-813,9,328,2,-3,6,1075,8,236,7,-1894,8,0,1266,0,134,0, 
0,7067,198,0,-1364,4,-1773,3,-1391,7,-304,5,-306,0,-178,5,-861,0,-5557,5,384,6,-7,8,307,8,855,6,-3270,0,-1512,0,-255,6,-1,5,-16,2,-823,2,326,7,-3,6,1070,7,241,2,-1889,7,0,1272,0,135,0, 
0,7100,203,7,-1356,6,-1768,5,-1385,7,-296,1,-299,7,-176,7,-855,6,-5187,0,398,4,-4,5,310,5,852,0,-3264,9,-1502,7,-258,3,-1,5,-16,2,-816,0,327,0,-3,6,1080,0,237,9,-1887,9,0,1278,0,136,0, 
0,7133,208,5,-1352,7,-1768,8,-1386,3,-291,3,-296,1,-172,2,-853,5,-5038,8,399,3,0,0,313,5,851,1,-3261,3,-1505,7,-260,7,-2,1,-15,3,-817,5,329,4,-3,3,1087,5,238,8,-1871,7,0,1284,0,137,0, 
0,7167,208,2,-1356,0,-1764,0,-1379,1,-293,1,-296,1,-176,7,-849,6,-5038,8,405,6,5,1,312,6,848,4,-3253,5,-1504,5,-269,1,-1,2,-15,6,-806,1,336,9,-3,6,1091,7,224,7,-1880,1,0,1290,0,138,0, 
0,7200,206,4,-1359,0,-1767,3,-1377,6,-290,7,-289,5,-174,0,-845,1,-5038,8,396,6,0,0,305,4,844,2,-3256,5,-1503,9,-267,6,-1,5,-15,3,-809,7,338,4,-3,9,1079,4,237,6,-1878,6,0,1296,0,139,0, 
0,7233,200,1,-1361,7,-1771,2,-1381,8,-298,2,-292,8,-182,7,-850,2,-5557,5,395,7,0,9,297,3,836,7,-3263,1,-1506,3,-268,8,-1,5,-15,9,-813,6,327,6,-3,9,1077,0,229,8,-1882,5,0,1302,0,140,0, 
0,7267,200,7,-1362,6,-1771,8,-1383,3,-303,3,-297,3,-180,0,-850,2,-5557,5,390,9,0,3,301,8,847,8,-3267,9,-1509,3,-277,8,-1,2,-15,3,-815,7,333,3,-3,6,1083,3,225,0,-1875,6,0,1308,0,141,0, 
0,7300,203,1,-1360,2,-1772,4,-1387,5,-302,1,-299,7,-181,5,-850,2,-5335,2,393,0,1,8,303,0,839,4,-3263,7,-1505,1,-282,0,-1,8,-15,3,-816,6,323,7,-3,9,1079,1,212,7,-1877,4,0,1314,0,142,0, 
0,7333,203,1,-1364,1,-1782,6,-1390,8,-298,8,-301,5,-183,3,-855,9,-4890,6,382,5,-4,5,295,2,836,1,-3258,9,-1499,1,-276,0,-1,5,-15,6,-823,8,315,3,-3,6,1074,3,220,2,-1886,7,0,1320,0,143,0, 
0,7367,203,1,-1371,3,-1785,9,-1397,1,-303,0,-300,0,-183,6,-854,1,-4964,7,384,3,-12,0,296,1,839,4,-3257,7,-1496,1,-275,7,-1,5,-15,6,-827,1,320,7,-3,6,1070,4,222,3,-1898,4,0,1326,0,144,0, 
0,7400,196,2,-1373,4,-1791,3,-1400,7,-312,6,-303,9,-184,8,-858,9,-5187,0,376,5,-19,2,292,2,842,7,-3268,8,-1499,4,-278,7,0,9,-15,6,-833,4,316,2,-3,3,1072,8,214,8,-1898,1,0,1332,0,145,0, 
0,7433,203,4,-1366,8,-1787,1,-1400,4,-314,4,-306,0,-187,2,-856,5,-5557,5,383,1,-29,1,286,2,849,9,-3258,0,-1496,7,-270,3,-1,2,-15,6,-839,4,314,1,-3,9,1061,7,211,8,-1898,7,0,1338,0,146,0, 
0,7467,200,4,-1360,8,-1781,7,-1397,4,-316,5,-303,6,-179,7,-851,4,-5335,2,385,8,-19,8,281,7,823,8,-3267,0,-1505,1,-260,7,-1,5,-15,9,-840,9,307,2,-3,3,1068,0,225,0,-1883,7,0,1344,0,147,0, 
0,7500,203,4,-1356,0,-1783,8,-1398,0,-319,2,-300,3,-181,2,-846,6,-5187,0,385,8,-6,6,292,8,840,3,-3265,5,-1506,0,-276,6,-1,2,-15,3,-832,5,313,2,-3,9,1069,2,213,9,-1873,8,0,1350,0,148,0, 
0,7533,197,7,-1361,4,-1787,1,-1398,6,-321,3,-301,8,-182,4,-848,1,-4890,6,388,8,-8,7,293,4,845,1,-3262,5,-1501,5,-279,0,-1,5,-15,9,-830,7,316,5,-3,6,1061,7,207,3,-1891,8,0,1356,0,149,0, 
0,7567,199,2,-1359,3,-1788,9,-1399,8,-323,1,-303,9,-188,4,-853,5,-5187,0,385,5,-21,0,281,4,845,7,-3262,2,-1497,3,-273,9,-1,8,-15,6,-838,8,314,7,-4,2,1061,4,219,6,-1898,1,0,1362,0,150,0, 
0,7600,200,7,-1356,9,-1787,4,-1394,4,-320,1,-303,6,-182,4,-851,4,-5261,1,382,5,-13,5,292,5,851,7,-3261,9,-1504,2,-276,9,-1,5,-15,3,-830,1,320,7,-3,6,1071,6,222,3,-1887,6,0,1368,0,151,0, 
0,7633,196,2,-1365,6,-1789,5,-1395,9,-328,2,-306,0,-187,2,-857,1,-5483,4,384,0,-9,9,291,9,846,3,-3270,0,-1501,2,-271,8,-1,2,-15,3,-830,1,324,6,-4,2,1070,7,220,8,-1873,2,0,1374,0,152,0, 
0,7667,202,8,-1361,4,-1793,4,-1397,7,-325,8,-300,9,-186,6,-854,1,-5409,3,383,7,-16,2,287,7,850,2,-3260,7,-1487,4,-264,9,-1,8,-15,6,-832,5,320,7,-3,3,1074,3,221,7,-1862,7,0,1380,0,153,0, 
0,7700,200,7,-1359,0,-1788,3,-1395,0,-322,8,-300,9,-183,0,-852,3,-5112,9,387,6,-12,0,296,4,853,8,-3262,2,-1491,0,-265,5,0,9,-15,3,-827,1,325,8,-3,6,1080,3,219,0,-1872,6,0,1386,0,154,0, 
0,7733,195,0,-1361,4,-1781,4,-1389,9,-312,3,-294,3,-181,2,-851,7,-4964,7,387,6,-8,7,301,8,850,2,-3260,7,-1496,4,-265,2,-1,2,-15,9,-825,3,324,9,-3,9,1075,2,228,3,-1871,1,0,1392,0,155,0, 
0,7767,195,3,-1365,9,-1775,4,-1387,5,-316,2,-300,9,-185,4,-853,2,-4890,6,393,9,-7,8,294,3,846,3,-3258,0,-1496,4,-261,0,-1,2,-15,9,-823,2,324,9,-3,6,1082,4,243,0,-1887,0,0,1398,0,156,0, 
0,7800,198,3,-1356,6,-1768,5,-1383,6,-311,4,-299,4,-188,7,-854,4,-5112,9,402,9,-8,4,305,7,843,6,-3253,8,-1495,2,-262,5,-1,5,-15,6,-844,5,332,1,-3,9,1088,7,228,6,-1884,3,0,1404,0,157,0, 
0,7833,198,9,-1359,6,-1761,9,-1382,4,-307,5,-297,6,-187,2,-849,3,-5409,3,402,0,-3,9,303,9,834,0,-3249,3,-1493,4,-263,1,-1,5,-15,3,-843,6,333,6,-3,9,1094,1,237,0,-1870,2,0,1410,0,158,0, 
0,7867,193,5,-1366,8,-1767,9,-1385,7,-305,1,-293,1,-182,7,-857,4,-5335,2,399,3,-3,3,306,9,855,3,-3256,5,-1490,7,-252,6,-1,5,-15,3,-831,3,333,3,-3,9,1092,6,243,0,-1875,9,0,1416,0,159,0, 
0,7900,195,9,-1362,0,-1776,6,-1390,8,-312,9,-294,9,-186,0,-854,4,-5112,9,412,8,-2,4,309,9,861,0,-3253,2,-1494,0,-255,9,-1,8,-15,6,-822,3,329,7,-3,9,1089,9,241,5,-1891,8,0,1422,0,160,0, 
0,7933,195,6,-1360,2,-1773,9,-1386,3,-317,4,-293,4,-177,9,-859,2,-4964,7,412,8,6,0,318,9,858,0,-3247,8,-1502,7,-268,8,-1,5,-15,6,-810,3,339,3,-3,9,1099,8,240,3,-1868,7,0,1428,0,161,0, 
0,7967,198,0,-1359,6,-1785,3,-1387,5,-322,5,-295,2,-181,8,-861,0,-5112,9,413,7,5,4,312,6,869,4,-3249,9,-1506,6,-274,5,-1,5,-15,3,-816,0,340,5,-3,3,1094,1,228,3,-1864,2,0,1434,0,162,0, 
0,8000,195,0,-1361,4,-1791,3,-1394,7,-330,9,-297,9,-178,5,-866,7,-5187,0,394,5,-4,2,298,2,853,5,-3261,9,-1505,4,-272,4,-1,5,-15,6,-825,6,327,6,-3,9,1086,9,234,6,-1870,8,0,1440,0,163,0, 
0,8033,194,4,-1359,6,-1789,5,-1403,4,-333,6,-302,1,-185,1,-864,9,-5483,4,390,0,-11,1,287,7,848,1,-3266,4,-1508,4,-274,5,-1,5,-15,6,-828,3,314,7,-3,9,1081,5,232,8,-1875,6,0,1446,0,164,0, 
0,8067,192,0,-1370,7,-1789,2,-1404,6,-335,4,-297,9,-182,1,-865,8,-5483,4,394,5,-19,2,291,3,845,7,-3261,6,-1504,2,-279,0,-1,5,-15,9,-831,3,308,7,-3,6,1080,3,233,7,-1881,9,0,1452,0,165,0, 
0,8100,194,1,-1366,5,-1791,3,-1404,0,-339,0,-301,5,-183,9,-866,4,-5261,1,390,9,-19,2,282,0,837,3,-3264,9,-1512,0,-281,4,-1,8,-15,3,-837,0,314,7,-3,6,1065,0,239,4,-1893,9,0,1458,0,166,0, 
0,8133,189,3,-1374,0,-1801,5,-1402,5,-338,7,-307,8,-185,1,-867,9,-5038,8,387,9,-27,3,281,1,835,5,-3263,4,-1504,2,-275,1,-1,2,-15,6,-846,3,311,1,-3,9,1064,7,249,0,-1893,6,0,1464,0,167,0, 
0,8167,186,6,-1378,8,-1803,9,-1405,5,-343,8,-314,1,-194,4,-873,6,-5038,8,381,9,-27,3,277,5,829,5,-3266,4,-1507,2,-287,7,-1,2,-15,6,-848,7,306,0,-3,3,1065,9,235,2,-1902,0,0,1470,0,168,0, 
0,8200,187,2,-1375,2,-1797,3,-1408,2,-347,7,-315,0,-194,7,-869,1,-5187,0,381,6,-24,9,281,7,831,3,-3257,1,-1503,6,-277,5,-1,8,-15,6,-839,4,309,9,-3,9,1063,2,234,6,-1888,8,0,1476,0,169,0, 
0,8233,185,1,-1375,2,-1804,8,-1417,2,-352,2,-317,4,-197,1,-874,5,-5409,3,379,2,-31,8,265,8,833,7,-3264,9,-1503,0,-273,9,-1,2,-15,6,-850,2,303,6,-4,2,1051,8,236,4,-1892,1,0,1482,0,170,0, 
0,8267,189,3,-1359,9,-1797,3,-1410,6,-351,0,-315,3,-195,9,-870,9,-5483,4,370,8,-21,9,277,8,845,4,-3258,9,-1493,7,-256,5,0,9,-15,3,-839,1,308,7,-3,9,1054,5,237,9,-1893,9,0,1488,0,171,0, 
0,8300,186,0,-1370,4,-1802,1,-1419,9,-362,1,-320,4,-194,1,-878,1,-5335,2,370,8,-31,5,265,5,830,4,-3255,6,-1480,5,-232,8,-1,5,-15,3,-850,5,289,2,-4,2,1040,4,242,4,-1908,3,0,1494,0,172,0, 
0,8333,189,3,-1368,9,-1806,0,-1419,0,-355,2,-316,5,-196,5,-873,3,-4816,5,372,0,-29,1,272,4,829,8,-3255,6,-1489,8,-240,0,-1,5,-15,3,-851,4,287,1,-3,6,1050,9,247,8,-1897,5,0,1500,0,173,0, 
0,8367,199,2,-1349,1,-1785,6,-1396,5,-332,7,-298,5,-196,5,-858,6,-5112,9,397,2,-6,6,306,6,855,3,-3252,0,-1501,5,-299,7,-1,5,-16,2,-826,8,327,0,-3,9,1087,2,227,7,-1881,6,0,1506,0,174,0, 
0,8400,196,2,-1353,9,-1790,4,-1396,5,-334,8,-297,3,-191,4,-855,9,-5261,1,393,9,-10,2,303,6,849,9,-3249,6,-1501,5,-282,3,-1,5,-15,6,-831,6,325,5,-3,9,1088,1,231,9,-1876,8,0,1512,0,175,0, 
0,8433,193,5,-1350,9,-1787,4,-1398,9,-335,4,-299,1,-187,8,-853,5,-5483,4,395,4,-7,8,305,1,848,1,-3256,5,-1501,2,-281,7,-1,2,-15,6,-828,6,316,8,-3,6,1086,3,234,9,-1877,4,0,1518,0,176,0, 
0,8467,189,9,-1358,7,-1785,0,-1398,9,-339,0,-299,7,-192,3,-854,1,-5409,3,397,8,-13,2,300,6,856,2,-3252,9,-1500,9,-283,5,-1,5,-15,6,-833,1,323,7,-3,6,1085,4,226,5,-1869,9,0,1524,0,177,0, 
0,8500,191,4,-1353,0,-1778,4,-1395,0,-334,8,-293,7,-190,8,-858,0,-5335,2,405,6,-12,6,304,8,862,5,-3258,6,-1501,2,-281,1,-1,2,-15,9,-827,7,326,7,-4,2,1087,2,229,8,-1869,0,0,1530,0,178,0, 
0,8533,195,6,-1346,7,-1775,4,-1387,5,-332,1,-291,3,-188,4,-850,2,-4890,6,405,6,2,1,308,4,869,4,-3262,2,-1504,5,-285,9,-1,5,-15,3,-826,5,331,5,-3,6,1097,7,230,4,-1869,9,0,1536,0,179,0, 
0,8567,190,5,-1351,2,-1784,7,-1392,3,-337,5,-294,0,-192,0,-851,1,-5112,9,399,0,0,6,299,7,861,6,-3266,7,-1509,6,-289,2,-1,2,-15,6,-826,8,324,3,-3,6,1081,2,224,1,-1863,6,0,1542,0,180,0, 
0,8600,195,0,-1345,5,-1780,2,-1392,0,-330,3,-296,1,-188,7,-846,3,-5112,9,396,3,-3,0,295,8,884,4,-3261,3,-1510,2,-282,9,-1,5,-15,3,-819,9,330,0,-3,6,1079,4,222,3,-1892,4,0,1548,0,181,0, 
0,8633,196,2,-1343,1,-1772,1,-1386,9,-338,4,-301,2,-194,7,-849,0,-5409,3,401,7,5,4,313,8,867,0,-3258,0,-1503,6,-283,8,-1,5,-15,6,-809,7,335,1,-3,3,1085,7,226,8,-1885,5,0,1554,0,182,0, 
0,8667,195,3,-1350,9,-1775,4,-1391,4,-341,7,-308,4,-198,3,-854,7,-5483,4,404,4,6,0,309,6,854,1,-3248,1,-1506,0,-277,5,0,9,-15,6,-813,9,328,8,-3,6,1088,4,229,8,-1890,3,0,1560,0,183,0, 
0,8700,194,4,-1352,4,-1784,4,-1398,0,-355,5,-313,8,-197,7,-856,8,-5261,1,402,0,-9,3,300,9,854,1,-3256,2,-1501,5,-267,3,-1,2,-15,3,-821,1,319,5,-3,9,1082,1,230,1,-1910,7,0,1566,0,184,0, 
0,8733,195,9,-1351,8,-1780,8,-1394,7,-352,2,-312,6,-191,7,-854,7,-4964,7,402,3,-3,0,303,0,848,4,-3255,0,-1496,1,-264,9,-1,2,-15,9,-820,5,323,7,-3,6,1084,8,231,3,-1906,8,0,1572,0,185,0, 
0,8767,189,6,-1359,0,-1797,9,-1406,4,-359,7,-319,8,-202,2,-862,8,-5038,8,386,7,-21,9,286,8,830,1,-3264,0,-1501,2,-268,2,-1,5,-15,6,-841,5,307,2,-3,6,1075,8,227,7,-1902,6,0,1578,0,186,0, 
0,8800,193,8,-1356,6,-1792,2,-1397,1,-352,2,-311,4,-189,9,-855,3,-5187,0,399,3,-17,4,293,1,844,5,-3266,1,-1499,4,-285,0,-1,2,-15,3,-831,0,314,1,-3,9,1082,4,223,5,-1898,4,0,1584,0,187,0, 
0,8833,188,4,-1358,7,-1804,8,-1406,1,-363,0,-314,1,-199,8,-862,2,-5483,4,393,0,-14,4,294,6,842,7,-3270,6,-1511,1,-294,3,-1,5,-15,6,-839,4,308,1,-3,6,1077,9,214,5,-1900,8,0,1590,0,188,0, 
0,8867,191,7,-1358,4,-1798,5,-1404,6,-358,5,-306,9,-195,0,-862,8,-5483,4,394,5,-4,5,297,3,849,0,-3273,9,-1507,8,-284,4,-1,5,-15,6,-826,8,321,6,-3,3,1073,4,221,4,-1889,1,0,1596,0,189,0, 
0,8900,189,9,-1358,4,-1798,8,-1406,1,-360,0,-301,8,-196,2,-862,8,-5261,1,386,1,-8,4,294,6,846,0,-3273,3,-1503,6,-278,7,-1,5,-15,6,-832,5,326,7,-3,3,1073,4,223,5,-1875,3,0,1602,0,190,0, 
0,8933,193,8,-1356,3,-1788,0,-1400,1,-356,1,-293,4,-188,1,-858,6,-4890,6,385,5,-4,2,300,6,855,3,-3270,6,-1499,4,-275,1,-1,8,-15,6,-829,2,328,2,-3,3,1077,9,219,0,-1883,4,0,1608,0,191,0, 
0,8967,192,0,-1360,5,-1791,3,-1398,3,-350,7,-296,7,-191,1,-862,5,-5112,9,393,3,-2,4,295,5,853,8,-3269,1,-1491,6,-274,5,-1,5,-15,0,-822,0,322,2,-4,2,1065,0,228,6,-1910,7,0,1614,0,192,0, 
0,9000,195,3,-1357,2,-1790,1,-1386,9,-348,6,-303,0,-188,4,-861,6,-5261,1,402,0,5,4,307,5,852,9,-3267,0,-1493,4,-284,7,-1,8,-15,6,-808,5,334,5,-3,9,1079,4,228,3,-1909,2,0,1620,0,193,0, 
0,9033,193,8,-1356,9,-1785,6,-1388,7,-357,0,-312,6,-193,8,-861,0,-5409,3,404,7,6,3,315,6,850,2,-3269,1,-1497,9,-274,5,-1,5,-15,3,-809,1,331,5,-3,3,1086,9,233,1,-1904,1,0,1626,0,194,0, 
0,9067,195,9,-1355,4,-1777,2,-1386,6,-346,2,-309,0,-192,6,-857,4,-5483,4,408,0,3,9,305,1,848,7,-3268,2,-1493,4,-272,4,-1,2,-15,3,-814,2,313,8,-3,6,1086,9,231,6,-1895,7,0,1632,0,195,0, 
0,9100,190,8,-1352,4,-1790,4,-1389,3,-355,8,-309,6,-188,7,-862,8,-5187,0,396,3,0,9,307,2,854,7,-3261,6,-1492,5,-267,0,-1,8,-15,9,-822,9,320,7,-3,6,1077,3,234,9,-1886,1,0,1638,0,196,0, 
0,9133,193,2,-1356,6,-1790,4,-1389,3,-357,3,-304,5,-188,1,-862,5,-5038,8,401,4,0,6,312,9,857,7,-3258,6,-1487,7,-263,7,-1,2,-15,3,-814,8,329,4,-3,6,1074,3,240,3,-1885,8,0,1644,0,197,0, 
0,9167,192,6,-1351,8,-1790,7,-1391,4,-356,7,-307,2,-192,6,-863,4,-5038,8,404,4,0,6,308,7,861,0,-3261,3,-1492,8,-272,7,-1,2,-15,6,-817,5,330,0,-3,3,1083,6,232,2,-1887,6,0,1650,0,198,0, 
0,9200,195,9,-1349,7,-1791,0,-1394,4,-359,7,-310,8,-188,7,-861,3,-5112,9,405,0,3,6,303,3,854,4,-3264,3,-1494,9,-278,1,-1,2,-15,3,-821,7,326,7,-3,6,1084,5,227,7,-1885,5,0,1656,0,199,0, 
0,9233,194,7,-1346,1,-1787,7,-1395,6,-361,5,-306,9,-186,3,-858,6,-5409,3,393,0,0,6,304,2,857,7,-3264,3,-1490,7,-273,0,-1,2,-15,6,-824,4,323,7,-3,6,1081,2,223,2,-1868,1,0,1662,0,200,0, 
0,9267,194,4,-1345,5,-1790,1,-1394,7,-353,1,-304,2,-183,9,-857,7,-5483,4,394,8,-3,3,300,9,860,1,-3262,2,-1500,6,-277,8,-1,2,-15,9,-823,5,324,6,-3,6,1081,8,231,9,-1879,8,0,1668,0,201,0, 
0,9300,197,1,-1344,3,-1793,1,-1399,5,-356,1,-298,8,-180,6,-858,3,-5335,2,398,7,-14,7,300,0,845,7,-3260,1,-1490,7,-271,5,-1,5,-15,6,-833,4,322,2,-3,9,1075,5,231,0,-1886,1,0,1674,0,202,0, 
0,9333,198,3,-1340,1,-1796,1,-1402,2,-362,4,-308,7,-188,1,-863,1,-4890,6,390,9,-16,2,287,1,861,3,-3269,4,-1494,0,-282,0,-1,2,-15,6,-845,7,320,1,-3,6,1074,0,213,0,-1878,9,0,1680,0,203,0, 
0,9367,197,1,-1339,5,-1793,4,-1397,7,-351,3,-300,9,-182,1,-860,7,-4964,7,395,7,-9,0,288,3,864,3,-3271,8,-1497,9,-289,2,-1,8,-15,6,-832,8,312,0,-3,3,1083,9,210,6,-1867,2,0,1686,0,204,0, 
0,9400,194,7,-1356,9,-1796,7,-1398,0,-351,9,-301,2,-185,4,-862,2,-5261,1,389,7,-10,5,281,4,832,5,-3268,2,-1502,4,-288,3,-1,2,-15,6,-833,7,309,0,-3,3,1077,9,213,9,-1885,8,0,1692,0,205,0, 
0,9433,193,5,-1364,7,-1808,1,-1404,6,-364,2,-308,1,-187,5,-864,9,-5557,5,382,2,-21,3,290,7,837,0,-3277,5,-1496,1,-278,4,-1,5,-15,6,-841,2,298,8,-3,6,1059,6,216,9,-1913,4,0,1698,0,206,0, 
0,9467,191,4,-1361,7,-1802,7,-1402,2,-367,8,-309,3,-183,9,-861,3,-5409,3,386,7,-20,4,297,3,827,1,-3270,6,-1493,7,-269,1,-1,5,-15,9,-835,8,314,1,-3,9,1064,7,221,1,-1916,1,0,1704,0,207,0, 
0,9500,184,5,-1365,6,-1807,5,-1408,8,-377,7,-318,0,-184,8,-866,1,-5261,1,381,6,-21,6,291,6,827,7,-3270,9,-1500,9,-263,7,-1,5,-15,6,-837,3,304,8,-3,6,1062,3,217,5,-1924,2,0,1710,0,208,0, 
0,9533,184,8,-1360,8,-1797,9,-1406,4,-375,6,-317,1,-182,1,-863,7,-4964,7,390,9,-11,4,295,5,849,6,-3277,8,-1503,0,-269,4,-1,5,-15,6,-837,9,302,7,-3,6,1065,9,216,6,-1914,9,0,1716,0,209,0, 
0,9567,189,3,-1355,7,-1789,5,-1401,3,-372,3,-311,4,-184,5,-858,6,-4964,7,395,1,-5,7,296,1,849,0,-3273,0,-1495,5,-270,0,-1,5,-15,3,-837,6,302,4,-3,9,1065,0,215,1,-1914,6,0,1722,0,210,0, 
0,9600,187,5,-1353,6,-1790,7,-1400,7,-369,6,-306,0,-180,3,-852,9,-5187,0,390,6,-4,5,293,7,849,6,-3273,6,-1501,8,-263,4,-1,5,-15,6,-831,9,309,3,-3,9,1065,0,213,6,-1904,7,0,1728,0,211,0, 
0,9633,194,4,-1350,0,-1793,7,-1400,4,-363,6,-303,3,-174,0,-849,9,-5557,5,387,9,-13,8,291,3,863,1,-3269,1,-1499,1,-267,0,-1,8,-15,3,-832,5,317,1,-3,6,1068,6,223,8,-1898,4,0,1734,0,212,0, 
0,9667,192,3,-1344,6,-1791,3,-1400,1,-366,0,-302,4,-169,2,-853,5,-5409,3,395,4,-9,0,295,2,851,1,-3278,1,-1509,9,-267,0,-1,2,-15,3,-834,9,318,9,-3,9,1073,7,222,3,-1897,5,0,1740,0,213,0, 
0,9700,195,6,-1347,0,-1793,4,-1404,3,-372,6,-302,7,-174,0,-855,0,-5261,1,390,9,-10,2,290,1,867,0,-3279,9,-1498,5,-264,0,-1,8,-15,6,-834,9,310,5,-4,2,1076,4,225,9,-1884,3,0,1746,0,214,0, 
0,9733,190,5,-1345,8,-1787,1,-1398,9,-370,2,-300,3,-174,6,-858,3,-4890,6,396,9,-4,8,304,5,855,6,-3275,1,-1505,1,-278,7,-1,5,-15,6,-822,3,314,1,-3,9,1075,8,217,2,-1861,2,0,1752,0,215,0, 
0,9767,188,7,-1342,2,-1791,6,-1404,0,-373,8,-304,2,-183,6,-864,6,-5038,8,388,8,-6,6,290,1,837,6,-3273,0,-1499,1,-276,9,-1,5,-15,6,-829,2,313,5,-3,9,1077,9,222,0,-1877,1,0,1758,0,216,0, 
0,9800,186,0,-1350,6,-1788,6,-1400,7,-362,1,-295,5,-173,7,-864,3,-5187,0,392,7,-16,8,296,4,846,9,-3272,7,-1494,6,-273,3,-1,2,-15,9,-825,6,316,2,-3,9,1077,3,228,9,-1904,7,0,1764,0,217,0, 
0,9833,195,6,-1348,2,-1782,0,-1393,2,-356,4,-294,0,-179,1,-864,9,-5483,4,399,9,-4,2,314,1,857,7,-3263,4,-1485,3,-265,8,-1,2,-15,3,-823,2,332,7,-3,3,1088,1,231,0,-1905,9,0,1770,0,218,0, 
0,9867,192,6,-1354,8,-1783,5,-1395,3,-356,7,-299,1,-174,6,-864,3,-5409,3,406,8,4,8,321,6,863,1,-3256,5,-1479,6,-263,1,-1,2,-15,3,-819,0,342,0,-3,6,1095,9,236,4,-1881,3,0,1776,0,219,0, 
0,9900,189,9,-1358,4,-1791,6,-1403,7,-372,9,-307,8,-182,1,-871,5,-5187,0,397,2,-10,5,297,3,852,3,-3262,2,-1480,8,-266,4,-1,5,-15,3,-829,5,323,4,-3,9,1083,0,234,9,-1889,1,0,1782,0,220,0, 
0,9933,191,4,-1358,1,-1795,8,-1411,8,-381,0,-315,9,-177,9,-867,6,-4964,7,393,9,-21,3,285,9,852,0,-3270,3,-1484,7,-262,5,-1,8,-15,9,-842,4,310,5,-3,6,1078,2,234,3,-1895,7,0,1788,0,221,0, 
0,9967,190,8,-1354,8,-1795,5,-1413,6,-381,6,-317,7,-185,1,-867,6,-4964,7,383,4,-27,3,288,9,855,0,-3266,1,-1487,4,-266,4,-1,8,-15,3,-842,7,309,3,-3,6,1072,5,225,9,-1899,0,0,1794,0,222,0, 
1,0,192,6,-1346,4,-1800,3,-1408,2,-382,5,-317,1,-181,8,-865,2,-5187,0,389,1,-18,6,293,4,873,0,-3271,2,-1488,9,-273,0,0,9,-16,2,-849,6,313,5,-3,6,1076,7,229,8,-1891,8,0,1800,0,223,0, 
1,33,190,5,-1350,9,-1804,5,-1410,6,-383,4,-312,9,-186,3,-864,6,-5335,2,392,1,-15,3,288,6,868,2,-3272,4,-1488,6,-287,7,-1,5,-15,3,-844,2,313,8,-3,6,1075,5,215,4,-1893,6,0,1806,0,224,0, 
1,67,201,3,-1342,2,-1796,4,-1407,0,-375,0,-310,8,-184,5,-859,8,-5483,4,396,6,-14,7,289,5,885,6,-3263,7,-1476,9,-295,5,0,9,-15,6,-829,8,312,3,-3,6,1085,4,209,7,-1898,1,0,1812,0,225,0, 
1,100,199,2,-1345,8,-1797,3,-1407,0,-370,8,-313,8,-189,6,-863,1,-5335,2,391,5,-19,5,298,8,880,2,-3265,8,-1485,3,-291,0,-1,2,-15,6,-834,3,316,5,-3,3,1080,0,209,1,-1896,6,0,1818,0,226,0, 
1,133,194,1,-1349,7,-1797,0,-1405,2,-365,7,-308,4,-189,9,-866,4,-4964,7,399,0,-12,9,297,6,864,0,-3278,4,-1485,9,-285,0,-1,2,-15,9,-827,7,317,7,-3,6,1083,0,210,3,-1877,1,0,1824,0,227,0, 
1,167,189,0,-1363,2,-1799,1,-1401,9,-360,0,-302,1,-189,3,-864,3,-4964,7,397,8,-17,1,291,3,850,2,-3280,8,-1485,9,-285,0,-1,5,-15,6,-830,4,314,7,-4,2,1076,4,207,6,-1864,8,0,1830,0,228,0, 
1,200,186,3,-1360,8,-1799,4,-1405,5,-361,8,-297,3,-185,4,-860,1,-5187,0,400,2,-16,8,295,2,841,5,-3291,0,-1493,4,-277,5,-1,2,-15,6,-841,2,308,7,-3,9,1067,1,214,2,-1889,1,0,1836,0,229,0, 
1,233,181,8,-1364,7,-1805,1,-1403,7,-366,6,-311,7,-196,5,-865,5,-5557,5,398,1,-17,1,299,4,855,6,-3285,6,-1494,9,-285,0,-1,5,-15,3,-842,4,323,7,-3,6,1070,7,211,5,-1916,7,0,1842,0,230,0, 
1,267,183,6,-1359,9,-1803,0,-1402,2,-364,8,-316,8,-195,0,-861,9,-5483,4,387,3,-21,0,298,2,842,1,-3278,4,-1499,7,-288,6,-1,5,-15,9,-845,7,316,2,-3,9,1079,4,214,5,-1902,3,0,1848,0,231,0, 
1,300,183,6,-1357,5,-1788,3,-1392,9,-351,6,-317,4,-184,5,-855,6,-5112,9,399,6,-5,1,315,3,834,6,-3268,5,-1498,8,-296,1,0,9,-15,6,-832,2,324,3,-3,6,1085,4,196,8,-1908,6,0,1854,0,232,0, 
1,333,181,8,-1359,9,-1793,1,-1396,2,-349,2,-312,6,-186,6,-859,2,-4816,5,397,2,-19,5,306,0,843,9,-3276,6,-1497,6,-287,7,0,9,-15,3,-841,5,326,7,-3,9,1080,9,211,2,-1897,5,0,1860,0,233,0, 
1,367,183,3,-1363,5,-1797,9,-1397,7,-346,5,-309,9,-183,9,-855,9,-5038,8,401,7,-16,2,293,7,848,7,-3271,5,-1486,8,-273,0,-1,2,-15,0,-842,4,327,0,-3,9,1080,3,216,6,-1900,8,0,1866,0,234,0, 
1,400,186,3,-1364,4,-1797,6,-1403,1,-344,1,-308,7,-180,9,-857,7,-5187,0,391,2,-14,4,292,8,869,4,-3275,7,-1491,9,-271,5,-1,5,-15,6,-839,4,312,3,-3,6,1071,0,216,6,-1901,7,0,1872,0,235,0, 
1,433,189,6,-1359,9,-1792,8,-1399,8,-347,1,-306,0,-180,9,-855,0,-5483,4,384,6,-12,6,296,4,876,0,-3268,5,-1487,4,-276,9,-1,2,-15,3,-834,9,324,9,-3,9,1071,0,208,5,-1903,5,0,1878,0,236,0, 
1,467,184,8,-1374,9,-1804,5,-1408,2,-345,6,-308,7,-181,8,-859,2,-5557,5,381,3,-31,5,291,3,849,9,-3262,2,-1485,6,-271,8,0,9,-15,3,-852,9,315,9,-3,9,1068,9,209,4,-1899,6,0,1884,0,237,0, 
1,500,186,3,-1374,6,-1794,3,-1401,3,-329,4,-302,4,-179,7,-853,5,-5335,2,396,6,-25,8,285,6,852,0,-3256,8,-1497,3,-278,7,-1,2,-15,6,-850,5,314,1,-3,3,1077,6,208,8,-1879,2,0,1890,0,238,0, 
1,533,186,9,-1372,5,-1797,9,-1399,8,-327,0,-300,3,-181,5,-851,7,-5112,9,398,7,-16,8,295,5,860,7,-3258,3,-1503,0,-283,5,-1,2,-15,6,-841,8,320,7,-3,6,1072,5,207,0,-1876,8,0,1896,0,239,0, 
1,567,189,0,-1369,5,-1799,1,-1394,4,-319,2,-297,6,-175,8,-849,9,-4964,7,391,2,-10,5,309,0,868,8,-3256,2,-1497,0,-281,1,-1,2,-15,3,-832,5,325,8,-3,6,1078,8,209,1,-1875,9,0,1902,0,240,0, 
1,600,192,6,-1373,1,-1799,4,-1402,5,-318,0,-302,4,-184,2,-854,4,-5187,0,389,1,-15,3,291,0,858,9,-3252,6,-1483,2,-280,5,-1,2,-15,3,-833,7,303,0,-3,9,1084,8,198,6,-1892,4,0,1908,0,241,0, 
1,633,192,0,-1374,6,-1791,9,-1398,6,-315,9,-304,8,-185,1,-852,3,-5483,4,394,8,-17,1,294,3,857,7,-3253,8,-1491,3,-283,2,-1,2,-15,3,-831,6,307,5,-3,9,1077,3,202,2,-1886,7,0,1914,0,242,0, 
1,667,194,7,-1367,4,-1790,4,-1395,6,-312,9,-305,7,-190,2,-850,5,-5409,3,403,5,-11,1,302,4,874,2,-3257,4,-1497,3,-302,1,-1,5,-15,3,-824,7,326,7,-3,9,1083,9,191,7,-1903,5,0,1920,0,243,0, 
1,700,192,9,-1364,1,-1788,6,-1394,7,-304,5,-306,6,-184,2,-851,4,-5112,9,405,6,-11,4,303,3,874,8,-3255,6,-1495,2,-293,7,-1,2,-15,3,-829,2,326,1,-3,9,1083,9,198,0,-1904,4,0,1926,0,244,0, 
1,733,197,1,-1363,8,-1783,5,-1395,9,-297,0,-305,7,-184,5,-850,5,-4890,6,404,7,-8,1,305,1,881,7,-3251,4,-1488,6,-291,3,-1,5,-15,6,-836,7,328,5,-3,6,1078,8,203,4,-1901,1,0,1932,0,245,0, 
1,767,187,5,-1379,4,-1789,8,-1396,2,-296,1,-305,7,-189,6,-853,8,-4964,7,397,2,-3,9,309,0,850,5,-3253,8,-1494,6,-294,3,0,9,-15,3,-825,0,327,0,-3,9,1077,3,205,5,-1899,3,0,1938,0,246,0, 
1,800,186,0,-1384,8,-1794,0,-1400,1,-296,7,-305,7,-187,5,-858,0,-5187,0,388,5,-7,8,300,3,855,3,-3257,7,-1495,5,-285,6,-1,5,-15,6,-829,8,325,2,-3,6,1071,3,206,7,-1887,9,0,1944,0,247,0, 
1,833,186,3,-1380,6,-1792,8,-1396,5,-296,7,-305,7,-186,0,-858,0,-5557,5,391,5,-12,3,300,6,855,0,-3263,7,-1496,7,-282,6,-1,5,-15,6,-827,4,330,0,-3,9,1074,6,212,4,-1879,2,0,1950,0,248,0, 
1,867,187,5,-1388,1,-1784,7,-1401,6,-292,8,-311,7,-188,1,-856,2,-5335,2,395,7,-22,2,299,1,840,0,-3261,9,-1496,7,-298,5,-1,2,-15,3,-835,5,323,4,-3,6,1075,2,192,9,-1897,2,0,1956,0,249,0, 
1,900,189,6,-1383,3,-1788,6,-1404,0,-289,8,-310,2,-185,4,-851,7,-5261,1,394,5,-20,1,283,8,856,2,-3257,4,-1502,4,-307,8,-1,2,-15,6,-839,7,316,5,-3,6,1074,6,198,3,-1894,8,0,1962,0,250,0, 
1,933,189,3,-1384,2,-1792,8,-1403,7,-293,1,-310,8,-184,5,-856,5,-5038,8,384,3,-13,5,284,4,859,8,-3260,7,-1502,1,-307,5,-1,2,-15,9,-840,0,314,1,-3,6,1077,0,195,3,-1900,8,0,1968,0,251,0, 
1,967,190,2,-1374,6,-1792,2,-1404,0,-290,4,-311,1,-186,0,-850,2,-5112,9,394,5,-14,4,288,3,855,0,-3247,2,-1496,1,-304,2,-1,2,-15,0,-833,7,309,3,-3,6,1079,4,202,5,-1894,8,0,1974,0,252,0, 
1,1000,193,5,-1379,1,-1790,1,-1399,5,-285,0,-308,7,-182,4,-851,4,-5187,0,393,9,-12,6,289,5,851,4,-3249,0,-1496,4,-300,3,-1,5,-15,6,-831,6,305,4,-3,9,1076,7,206,1,-1887,9,0,1980,0,253,0, 
1,1033,190,5,-1382,1,-1791,0,-1402,8,-282,6,-305,7,-179,1,-852,9,-5557,5,389,4,-13,2,289,2,846,0,-3242,7,-1497,3,-305,1,-1,5,-15,3,-832,5,306,3,-4,2,1074,9,210,0,-1872,3,0,1986,0,254,0, 
1,1067,186,3,-1385,7,-1785,9,-1403,1,-283,5,-309,9,-184,8,-852,0,-5483,4,390,0,-13,5,293,1,847,2,-3243,9,-1505,1,-308,7,-1,5,-15,6,-838,2,309,6,-3,3,1068,3,207,0,-1888,5,0,1992,0,255,0, 
1,1100,186,0,-1386,3,-1791,0,-1409,4,-282,6,-308,7,-182,7,-854,4,-5409,3,381,6,-24,6,289,2,843,3,-3254,7,-1511,1,-309,3,-1,2,-15,6,-852,6,307,2,-3,6,1062,3,210,6,-1919,7,0,1998,0,0,0, 
1,1133,186,6,-1385,4,-1790,7,-1408,5,-289,8,-316,5,-183,6,-852,0,-5112,9,382,5,-21,0,282,6,850,8,-3258,3,-1506,3,-306,0,-1,2,-15,6,-842,1,302,4,-3,6,1062,3,214,2,-1923,0,0,2004,0,1,0, 
1,1167,192,3,-1377,9,-1794,0,-1405,8,-288,0,-308,4,-176,1,-846,0,-5112,9,380,4,-20,1,276,3,855,3,-3257,4,-1500,9,-298,8,-1,2,-15,3,-834,3,306,0,-3,6,1062,3,218,7,-1911,3,0,2010,0,2,0, 
1,1200,189,3,-1379,7,-1785,6,-1405,5,-285,3,-308,4,-178,2,-848,1,-5261,1,371,1,-24,6,283,5,854,7,-3259,2,-1504,5,-309,9,-1,5,-15,6,-843,3,301,2,-3,3,1060,8,216,3,-1908,6,0,2016,0,3,0, 
1,1233,188,1,-1383,0,-1787,1,-1411,2,-289,8,-311,4,-179,7,-852,9,-5483,4,375,6,-26,1,280,5,849,3,-3263,1,-1508,4,-309,6,-1,2,-15,3,-844,8,304,5,-4,5,1062,3,207,0,-1902,9,0,2022,0,4,0, 
1,1267,193,5,-1382,4,-1781,7,-1406,1,-288,3,-310,8,-175,2,-846,9,-5557,5,380,1,-12,6,292,8,844,2,-3253,8,-1498,2,-305,7,-1,2,-15,6,-832,5,311,4,-3,9,1069,2,218,7,-1893,3,0,2028,0,5,0, 
1,1300,192,6,-1389,0,-1788,9,-1413,6,-291,0,-315,3,-182,7,-851,1,-5187,0,371,4,-33,3,279,3,837,6,-3254,7,-1500,9,-307,2,-1,2,-15,0,-849,6,303,9,-3,3,1052,1,225,6,-1900,8,0,2034,0,6,0, 
1,1333,186,3,-1393,5,-1785,3,-1410,0,-285,6,-318,0,-182,7,-853,2,-4964,7,375,9,-36,0,281,4,839,7,-3256,5,-1506,6,-305,4,-1,5,-15,6,-852,3,302,7,-3,6,1054,5,224,1,-1914,3,0,2040,0,7,0, 
1,1367,190,2,-1385,4,-1787,4,-1409,1,-278,4,-315,0,-183,0,-849,0,-5038,8,378,3,-19,8,285,0,849,9,-3241,5,-1509,6,-316,2,-1,5,-15,3,-839,4,296,7,-3,6,1065,9,217,2,-1920,6,0,2046,0,8,0, 
1,1400,191,4,-1386,0,-1790,1,-1404,6,-278,1,-312,9,-186,3,-846,3,-5261,1,380,7,-13,8,282,0,841,8,-3246,3,-1508,7,-315,0,-1,5,-15,9,-832,5,301,5,-4,2,1062,9,222,9,-1919,4,0,2052,0,9,0, 
1,1433,190,2,-1384,2,-1790,4,-1404,6,-276,9,-310,2,-182,4,-840,3,-5483,4,381,3,-14,4,275,7,839,1,-3247,5,-1509,0,-302,1,-1,8,-15,3,-829,8,294,3,-3,6,1064,1,227,7,-1904,7,0,2058,0,10,0, 
1,1467,189,3,-1383,3,-1788,0,-1408,5,-282,3,-309,6,-180,9,-841,5,-5409,3,384,9,-18,9,288,3,838,5,-3245,1,-1511,1,-307,2,-1,2,-15,6,-843,9,302,1,-3,9,1062,6,230,4,-1892,4,0,2064,0,11,0, 
1,1500,189,9,-1382,1,-1781,7,-1404,3,-286,5,-308,1,-186,6,-841,5,-5335,2,393,9,-19,8,290,1,838,5,-3240,0,-1506,6,-323,7,-1,5,-15,6,-833,7,308,1,-3,6,1063,2,201,3,-1896,6,0,2070,0,12,0, 
1,1533,190,8,-1383,6,-1784,1,-1406,7,-289,2,-311,1,-181,2,-842,1,-4890,6,387,9,-21,0,286,5,858,9,-3236,4,-1502,4,-306,9,-1,2,-15,9,-835,8,304,8,-3,6,1057,8,216,3,-1900,2,0,2076,0,13,0, 
1,1567,194,4,-1378,2,-1783,8,-1404,3,-289,8,-308,4,-182,1,-840,6,-4964,7,386,7,-26,4,285,6,855,6,-3244,2,-1502,7,-297,3,-1,2,-15,6,-840,6,303,0,-3,6,1057,8,231,6,-1903,5,0,2082,0,14,0, 
1,1600,198,6,-1375,8,-1771,2,-1396,2,-273,9,-304,8,-184,2,-836,4,-5187,0,399,0,-9,0,296,7,865,2,-3237,6,-1505,4,-322,8,-1,5,-15,3,-829,2,321,0,-4,2,1066,8,225,3,-1908,0,0,2088,0,15,0, 
1,1633,196,2,-1371,0,-1772,7,-1398,6,-276,0,-308,1,-187,2,-836,1,-5483,4,400,8,-10,5,292,5,860,7,-3237,9,-1505,7,-328,8,-1,5,-15,6,-829,5,320,1,-3,6,1073,4,219,6,-1902,0,0,2094,0,16,0, 
1,1667,198,9,-1375,5,-1772,7,-1398,9,-276,0,-313,2,-185,4,-835,5,-5557,5,397,5,-12,6,288,0,851,4,-3232,2,-1503,9,-316,2,-1,5,-15,6,-825,9,313,8,-3,6,1068,3,224,4,-1904,7,0,2100,0,17,0, 
1,1700,199,5,-1368,6,-1767,0,-1396,5,-274,8,-306,9,-186,3,-831,0,-5261,1,396,0,-16,8,294,3,856,8,-3229,8,-1500,0,-326,4,-1,2,-15,9,-832,8,311,4,-3,6,1068,6,225,3,-1908,3,0,2106,0,18,0, 
1,1733,201,9,-1365,3,-1764,0,-1392,6,-271,2,-306,9,-187,5,-830,4,-5038,8,409,2,-9,3,298,2,849,9,-3226,2,-1508,1,-332,7,-1,2,-15,0,-819,9,313,5,-3,6,1076,1,220,2,-1916,1,0,2112,0,19,0, 
1,1767,199,2,-1363,2,-1761,0,-1388,4,-270,6,-305,7,-184,8,-829,2,-5038,8,414,9,6,0,304,8,854,4,-3223,5,-1502,7,-326,7,-1,2,-15,3,-810,0,324,3,-3,9,1085,7,223,8,-1901,4,0,2118,0,20,0, 
1,1800,201,0,-1368,3,-1766,7,-1386,9,-272,1,-304,2,-186,9,-831,9,-5187,0,420,3,2,7,311,1,869,7,-3228,3,-1499,4,-323,1,-1,8,-15,3,-811,5,330,0,-3,9,1090,2,232,2,-1890,0,0,2124,0,21,0, 
1,1833,201,6,-1368,6,-1763,7,-1387,5,-274,5,-298,5,-179,1,-828,3,-5409,3,410,7,-1,5,303,9,872,7,-3218,1,-1497,6,-318,3,0,9,-15,6,-817,5,332,1,-3,6,1087,2,239,1,-1883,1,0,2130,0,22,0, 
1,1867,199,2,-1373,7,-1772,4,-1389,6,-274,2,-299,7,-179,4,-834,3,-5557,5,405,0,-6,6,295,2,862,8,-3218,1,-1484,7,-318,0,-1,2,-15,3,-832,5,322,2,-3,9,1081,5,235,5,-1887,0,0,2136,0,23,0, 
1,1900,197,4,-1377,3,-1776,3,-1392,9,-276,0,-301,8,-183,9,-834,0,-5261,1,404,4,-19,8,293,7,850,2,-3218,4,-1484,4,-313,2,-1,2,-15,9,-829,5,314,7,-3,6,1083,9,236,1,-1890,6,0,2142,0,24,0, 
1,1933,195,6,-1380,9,-1772,7,-1390,8,-278,1,-299,7,-187,5,-831,6,-5112,9,410,7,-16,8,292,5,854,1,-3225,9,-1490,1,-315,6,-1,2,-15,3,-831,3,321,3,-3,9,1087,2,232,2,-1885,8,0,2148,0,25,0, 
1,1967,192,0,-1375,8,-1765,5,-1394,4,-276,3,-305,1,-188,1,-835,2,-4964,7,394,2,-16,2,299,7,859,8,-3235,8,-1494,0,-319,2,-1,2,-15,3,-832,5,313,8,-3,9,1074,6,224,1,-1885,2,0,2154,0,26,0, 
1,2000,194,1,-1368,3,-1758,9,-1390,2,-269,7,-298,5,-190,5,-830,4,-5335,2,395,1,-7,2,298,8,872,7,-3238,8,-1492,5,-327,9,-1,2,-15,6,-832,5,319,8,-3,3,1074,3,211,8,-1889,7,0,2160,0,27,0, 
1,2033,193,5,-1370,7,-1765,8,-1393,8,-282,9,-307,5,-193,5,-831,9,-5631,6,395,4,-6,0,300,3,853,5,-3248,4,-1497,6,-323,4,-1,5,-15,6,-831,9,315,9,-3,3,1067,1,215,1,-1912,2,0,2166,0,28,0, 
1,2067,192,9,-1376,1,-1781,1,-1394,1,-292,2,-310,5,-194,7,-834,3,-5409,3,393,9,1,2,309,3,837,0,-3256,2,-1500,3,-333,6,-1,5,-15,9,-819,3,327,9,-3,6,1069,2,209,7,-1897,5,0,2172,0,29,0, 
1,2100,184,8,-1381,8,-1779,0,-1392,6,-291,0,-310,8,-194,7,-829,8,-5261,1,384,6,-1,5,309,0,839,7,-3257,4,-1500,3,-335,1,-1,5,-15,6,-820,5,330,9,-3,6,1072,8,210,3,-1900,5,0,2178,0,30,0, 
1,2133,185,1,-1380,6,-1780,8,-1396,2,-290,1,-306,6,-191,4,-831,6,-5112,9,387,9,-8,1,305,4,847,5,-3262,2,-1498,5,-329,7,0,9,-15,6,-828,9,330,6,-3,6,1069,2,212,7,-1893,3,0,2184,0,31,0, 
1,2167,185,4,-1385,1,-1774,8,-1395,9,-290,4,-305,7,-192,6,-830,4,-4964,7,384,6,-10,2,309,3,837,0,-3258,3,-1508,1,-330,0,-1,8,-15,3,-822,0,335,1,-3,3,1069,8,220,2,-1916,7,0,2190,0,32,0, 
1,2200,187,2,-1385,1,-1770,9,-1395,9,-290,4,-312,3,-192,0,-827,4,-5187,0,384,9,-10,5,311,1,840,6,-3257,7,-1502,4,-322,5,-1,2,-15,3,-831,6,333,9,-3,9,1074,9,221,7,-1930,2,0,2196,0,33,0, 
1,2233,184,2,-1386,9,-1776,9,-1398,6,-293,1,-316,8,-198,0,-831,3,-5483,4,386,1,-7,2,304,8,825,3,-3259,2,-1509,9,-321,9,-1,5,-16,2,-834,6,322,8,-3,9,1069,8,219,6,-1909,5,0,2202,0,34,0, 
1,2267,185,7,-1387,2,-1782,0,-1394,1,-291,3,-312,6,-192,9,-834,0,-5409,3,384,0,-11,7,295,8,827,4,-3259,5,-1507,5,-320,1,-1,5,-15,6,-827,4,325,8,-3,6,1071,3,220,8,-1885,8,0,2208,0,35,0, 
1,2300,189,0,-1391,7,-1782,6,-1397,7,-294,6,-319,5,-194,4,-835,8,-5112,9,385,2,-15,6,297,3,830,4,-3246,9,-1506,9,-321,3,-1,2,-15,6,-830,4,323,1,-3,6,1067,4,215,4,-1896,3,0,2214,0,36,0, 
1,2333,187,5,-1383,9,-1776,6,-1391,7,-285,6,-320,1,-196,2,-836,7,-4890,6,393,9,-1,8,311,1,843,6,-3242,4,-1506,9,-329,1,-1,2,-15,6,-826,5,327,3,-3,6,1071,3,207,0,-1898,7,0,2220,0,37,0, 
1,2367,184,5,-1381,8,-1773,0,-1394,4,-293,1,-319,8,-198,6,-833,1,-4964,7,395,7,-3,9,309,9,841,5,-3251,4,-1511,7,-336,3,-1,2,-15,6,-823,2,320,4,-3,6,1065,0,203,1,-1891,8,0,2226,0,38,0, 
1,2400,186,6,-1378,8,-1770,3,-1389,9,-288,0,-316,2,-198,0,-833,4,-5261,1,392,7,-8,7,306,6,855,6,-3255,9,-1515,9,-340,5,-1,5,-15,3,-828,6,316,8,-3,6,1065,3,197,4,-1883,4,0,2232,0,39,0, 
1,2433,188,7,-1368,9,-1766,7,-1386,3,-291,9,-313,2,-200,1,-825,9,-5483,4,391,8,-4,5,309,6,855,6,-3258,0,-1515,0,-346,5,-1,5,-15,6,-834,3,318,6,-3,6,1070,7,200,4,-1867,2,0,2238,0,40,0, 
1,2467,186,3,-1370,4,-1772,4,-1389,9,-293,4,-318,0,-206,4,-831,0,-5409,3,381,6,-3,9,301,8,833,4,-3254,1,-1518,9,-345,9,-1,2,-15,3,-830,1,322,8,-3,9,1062,9,198,0,-1891,8,0,2244,0,41,0, 
1,2500,188,7,-1372,5,-1776,0,-1386,3,-296,4,-315,3,-201,0,-826,2,-5261,1,382,2,-3,6,303,9,825,6,-3250,5,-1513,8,-343,2,-1,2,-15,9,-822,0,315,3,-3,6,1061,4,206,4,-1900,2,0,2250,0,42,0, 
1,2533,190,8,-1374,9,-1773,0,-1394,1,-298,5,-319,8,-205,2,-825,0,-4964,7,382,5,-12,9,300,0,829,8,-3249,0,-1515,6,-339,6,-1,5,-15,6,-835,2,316,2,-3,9,1057,8,202,2,-1916,4,0,2256,0,43,0, 
1,2567,189,0,-1380,3,-1774,8,-1394,7,-304,8,-326,4,-206,1,-828,6,-5038,8,379,5,-20,1,294,3,836,4,-3245,7,-1517,1,-344,7,-1,5,-15,6,-855,3,318,3,-3,3,1059,6,201,3,-1911,9,0,2262,0,44,0, 
1,2600,184,5,-1382,1,-1782,3,-1399,8,-313,5,-327,9,-207,6,-832,8,-5187,0,382,5,-27,9,287,1,829,8,-3247,5,-1516,2,-347,7,-1,5,-15,6,-844,8,304,8,-3,6,1048,5,197,1,-1915,8,0,2268,0,45,0, 
1,2633,182,4,-1385,1,-1792,5,-1404,6,-316,8,-332,1,-208,5,-837,0,-5483,4,385,2,-20,4,282,3,827,1,-3253,5,-1522,2,-347,1,-1,5,-15,6,-840,9,297,3,-3,9,1044,3,202,2,-1916,4,0,2274,0,46,0, 
1,2667,182,1,-1383,9,-1801,8,-1403,1,-315,6,-332,7,-208,8,-837,0,-5483,4,382,8,-14,1,282,9,812,7,-3261,3,-1521,6,-349,2,-1,5,-15,9,-835,5,302,7,-3,3,1044,9,202,2,-1915,5,0,2280,0,47,0, 
1,2700,177,3,-1397,4,-1807,5,-1409,1,-313,5,-336,9,-211,8,-840,9,-5261,1,378,6,-26,4,276,3,815,4,-3259,8,-1518,3,-347,4,-1,5,-15,6,-846,9,298,2,-3,6,1039,5,202,2,-1911,9,0,2286,0,48,0, 
1,2733,180,3,-1392,6,-1800,6,-1408,5,-301,2,-333,0,-205,8,-839,4,-4890,6,366,3,-30,3,282,6,831,0,-3267,9,-1515,9,-340,8,-1,5,-15,9,-845,7,296,1,-3,3,1043,1,202,5,-1909,2,0,2292,0,49,0, 
1,2767,180,0,-1393,2,-1794,0,-1403,7,-299,7,-327,3,-204,0,-831,0,-4964,7,370,2,-27,9,290,7,831,6,-3261,9,-1512,9,-345,3,-1,2,-15,0,-844,8,303,0,-3,6,1057,5,198,0,-1902,9,0,2298,0,50,0, 
1,2800,174,6,-1400,1,-1799,4,-1404,9,-308,4,-324,3,-205,2,-837,3,-5112,9,364,2,-29,7,279,6,810,9,-3262,2,-1508,7,-337,2,-1,5,-15,6,-852,0,296,1,-3,6,1044,0,202,5,-1896,0,0,2304,0,51,0, 
1,2833,178,8,-1396,5,-1792,8,-1402,2,-311,1,-324,9,-203,4,-838,2,-5483,4,365,4,-21,9,290,4,820,5,-3266,4,-1511,7,-339,9,-1,5,-15,6,-852,0,309,0,-3,6,1044,9,204,3,-1895,4,0,2310,0,52,0, 
1,2867,178,5,-1391,7,-1792,8,-1400,1,-318,0,-328,8,-203,1,-836,4,-5261,1,368,7,-26,7,293,1,837,0,-3269,1,-1517,7,-347,1,0,9,-15,9,-856,2,313,2,-3,6,1051,8,205,5,-1897,5,0,2316,0,53,0, 
1,2900,185,1,-1379,4,-1788,9,-1399,2,-312,6,-320,7,-201,0,-833,1,-5409,3,373,5,-20,1,298,8,840,3,-3258,9,-1512,0,-348,3,-1,5,-15,6,-838,8,316,8,-4,2,1053,0,201,6,-1898,4,0,2322,0,54,0, 
1,2933,182,4,-1385,1,-1794,3,-1401,3,-312,3,-324,0,-201,6,-841,5,-4890,6,366,0,-30,3,288,6,818,1,-3273,6,-1520,7,-338,7,-1,5,-15,3,-841,8,305,4,-3,6,1050,0,212,7,-1893,9,0,2328,0,55,0, 
1,2967,181,2,-1388,4,-1795,5,-1403,7,-316,2,-321,0,-196,2,-838,5,-5038,8,364,2,-36,9,279,0,811,2,-3265,8,-1508,7,-318,6,-1,5,-15,9,-847,8,301,8,-3,9,1042,8,218,4,-1890,9,0,2334,0,56,0, 
1,3000,185,1,-1381,8,-1787,7,-1398,6,-306,6,-315,0,-201,3,-835,2,-5112,9,376,2,-18,3,291,9,836,7,-3265,8,-1508,1,-343,5,-1,2,-15,3,-845,7,307,8,-3,9,1047,3,204,3,-1929,3,0,2340,0,57,0, 
1,3033,186,6,-1379,7,-1781,1,-1393,2,-306,6,-321,3,-205,2,-830,4,-5483,4,373,5,-13,8,292,2,838,8,-3259,5,-1506,6,-346,5,-1,5,-15,6,-840,0,310,8,-3,9,1062,9,198,6,-1929,0,0,2346,0,58,0, 
1,3067,185,1,-1384,5,-1781,1,-1387,8,-306,9,-318,0,-200,1,-831,3,-5483,4,374,4,-18,9,294,3,820,8,-3261,0,-1521,0,-358,8,-1,2,-15,3,-842,1,314,1,-3,3,1064,7,194,4,-1907,4,0,2352,0,59,0, 
1,3100,182,4,-1386,9,-1788,6,-1391,1,-309,6,-317,7,-203,7,-830,4,-5409,3,374,7,-19,8,296,4,803,7,-3262,2,-1528,5,-365,4,-1,5,-15,6,-842,1,318,0,-3,6,1051,8,196,8,-1898,1,0,2358,0,60,0, 
1,3133,183,0,-1386,6,-1791,9,-1394,4,-313,2,-319,8,-203,7,-834,9,-4964,7,380,4,-21,6,282,6,816,3,-3262,8,-1527,9,-360,9,-1,2,-15,3,-838,2,311,1,-3,3,1054,5,200,7,-1898,1,0,2364,0,61,0, 
1,3167,183,6,-1384,5,-1791,9,-1397,4,-310,8,-320,1,-204,3,-834,9,-5038,8,378,9,-27,3,279,3,827,7,-3263,1,-1521,0,-361,8,-1,2,-15,6,-851,7,303,9,-3,9,1048,8,203,7,-1908,0,0,2370,0,62,0, 
1,3200,177,3,-1386,6,-1794,3,-1398,6,-309,6,-319,5,-203,4,-839,4,-5187,0,372,9,-25,2,293,7,819,0,-3270,6,-1522,2,-351,9,-1,8,-15,3,-855,6,304,5,-3,6,1054,5,207,6,-1918,8,0,2376,0,63,0, 
1,3233,170,7,-1389,6,-1792,5,-1394,7,-307,8,-321,0,-201,6,-839,1,-5483,4,363,3,-26,4,282,0,807,3,-3276,3,-1530,3,-344,7,-1,5,-15,9,-853,8,296,7,-3,6,1050,6,204,0,-1904,7,0,2382,0,64,0, 
1,3267,174,3,-1391,4,-1787,4,-1396,5,-310,2,-317,4,-199,5,-838,5,-5483,4,371,4,-30,3,286,8,816,3,-3259,5,-1524,3,-335,1,-1,8,-15,6,-849,0,307,8,-3,6,1050,0,213,9,-1900,2,0,2388,0,65,0, 
1,3300,175,2,-1387,5,-1791,9,-1398,6,-310,5,-319,5,-197,7,-834,9,-5187,0,376,8,-28,5,276,9,822,9,-3268,8,-1528,2,-349,5,-1,2,-15,3,-852,0,301,8,-3,6,1059,3,213,0,-1895,4,0,2394,0,66,0, 
1,3333,184,8,-1377,9,-1781,1,-1392,0,-302,4,-314,7,-196,5,-826,2,-5038,8,382,5,-16,5,289,2,842,1,-3266,7,-1526,7,-371,7,-1,5,-15,6,-842,1,303,9,-3,3,1064,4,210,3,-1898,4,0,2400,0,67,0, 
1,3367,181,8,-1381,5,-1788,3,-1395,0,-308,1,-319,2,-199,5,-831,9,-4964,7,374,4,-18,3,290,1,824,7,-3274,8,-1526,1,-374,7,-1,5,-15,9,-837,3,299,4,-3,3,1057,5,210,9,-1913,1,0,2406,0,68,0, 
1,3400,177,0,-1387,2,-1796,4,-1400,1,-311,4,-323,4,-203,4,-838,2,-5112,9,369,3,-25,5,285,6,814,5,-3278,7,-1529,1,-375,9,-1,5,-15,3,-843,9,290,7,-3,3,1050,3,204,9,-1917,9,0,2412,0,69,0, 
1,3433,177,9,-1387,5,-1794,9,-1402,5,-315,3,-327,0,-201,9,-837,9,-5557,5,372,0,-31,8,281,7,832,2,-3277,5,-1521,9,-366,9,-1,5,-15,9,-847,5,301,2,-3,6,1043,1,210,9,-1908,6,0,2418,0,70,0, 
1,3467,180,9,-1385,4,-1792,5,-1404,3,-313,2,-323,7,-200,4,-839,1,-5557,5,371,1,-36,3,279,0,835,8,-3283,5,-1526,1,-358,2,-1,2,-15,3,-848,4,293,7,-3,3,1041,6,212,7,-1906,8,0,2424,0,71,0, 
1,3500,180,9,-1388,7,-1795,5,-1399,8,-309,0,-322,5,-199,2,-837,3,-5261,1,370,8,-30,3,281,1,816,9,-3281,4,-1524,9,-369,0,-1,5,-15,6,-852,9,302,7,-3,9,1050,0,205,5,-1889,7,0,2430,0,72,0, 
1,3533,180,9,-1386,0,-1791,0,-1396,5,-308,1,-321,0,-195,9,-838,2,-4964,7,370,5,-22,8,288,3,830,1,-3269,7,-1519,2,-369,6,-1,2,-15,6,-847,2,294,6,-3,3,1038,0,198,6,-1890,9,0,2436,0,73,0, 
1,3567,183,9,-1385,1,-1791,0,-1396,5,-303,9,-326,7,-194,7,-840,0,-4964,7,371,1,-21,3,282,3,824,4,-3270,6,-1519,8,-376,2,-1,2,-15,6,-855,3,291,9,-3,6,1040,4,197,4,-1905,6,0,2442,0,74,0, 
1,3600,188,4,-1376,1,-1783,8,-1387,5,-300,9,-319,8,-194,7,-834,6,-5335,2,384,9,-23,4,278,7,814,5,-3263,7,-1513,8,-372,0,-1,2,-15,9,-846,3,301,8,-3,6,1057,5,200,7,-1911,3,0,2448,0,75,0, 
1,3633,183,0,-1381,2,-1786,5,-1394,4,-309,9,-321,6,-195,9,-834,9,-5335,2,379,8,-23,4,289,8,819,9,-3264,3,-1512,0,-362,1,-1,2,-15,9,-852,3,302,7,-3,6,1052,1,201,0,-1909,8,0,2454,0,76,0, 
1,3667,185,4,-1371,9,-1781,7,-1393,8,-305,4,-321,6,-195,0,-837,9,-5557,5,381,9,-16,2,291,0,832,2,-3261,0,-1514,4,-365,1,-1,5,-15,6,-839,4,304,2,-3,9,1055,1,206,1,-1890,9,0,2460,0,77,0, 
1,3700,183,0,-1374,9,-1784,4,-1394,7,-303,0,-323,1,-194,7,-839,1,-5261,1,378,9,-20,7,282,0,828,6,-3270,9,-1513,8,-356,1,-1,2,-15,3,-840,9,294,9,-3,6,1047,3,208,2,-1909,8,0,2466,0,78,0, 
1,3733,180,0,-1381,5,-1781,4,-1393,8,-302,4,-321,0,-195,3,-840,3,-5112,9,376,8,-23,4,277,2,826,8,-3269,1,-1509,3,-351,6,-1,5,-15,6,-850,5,291,0,-3,6,1047,0,213,0,-1911,0,0,2472,0,79,0, 
1,3767,187,2,-1375,2,-1776,3,-1389,9,-297,6,-317,7,-195,3,-833,4,-4890,6,380,7,-23,7,286,8,836,4,-3267,3,-1506,3,-351,3,-1,2,-15,0,-843,3,297,6,-3,9,1047,6,212,1,-1915,2,0,2478,0,80,0, 
1,3800,188,4,-1369,5,-1780,5,-1388,7,-300,6,-318,0,-192,9,-828,0,-5261,1,386,1,-13,5,295,5,818,1,-3260,1,-1505,4,-352,8,-1,2,-15,6,-829,2,301,5,-3,6,1057,2,220,8,-1901,4,0,2484,0,81,0, 
1,3833,185,7,-1375,5,-1778,1,-1393,2,-313,8,-321,0,-195,9,-831,6,-5483,4,384,9,-12,9,294,6,825,9,-3263,1,-1505,4,-345,3,-1,5,-15,6,-830,1,302,4,-3,6,1053,0,218,4,-1901,1,0,2490,0,82,0, 
1,3867,188,1,-1373,4,-1780,8,-1393,5,-310,2,-321,6,-193,2,-832,8,-5557,5,383,4,-14,1,291,3,843,3,-3263,4,-1500,6,-341,7,-1,8,-15,6,-833,4,302,1,-3,9,1057,8,223,8,-1906,5,0,2496,0,83,0, 
1,3900,189,6,-1371,0,-1782,3,-1389,0,-303,0,-315,3,-192,6,-827,4,-5335,2,385,5,-7,8,300,3,846,6,-3263,1,-1505,7,-354,9,0,9,-15,3,-827,1,302,1,-3,6,1058,7,213,0,-1893,6,0,2502,0,84,0, 
1,3933,189,6,-1371,9,-1784,1,-1390,2,-303,3,-321,3,-193,8,-826,5,-5038,8,390,9,-12,3,276,3,843,9,-3259,2,-1507,5,-363,0,0,9,-15,3,-829,8,299,7,-3,6,1061,7,219,6,-1883,1,0,2508,0,85,0, 
1,3967,187,2,-1373,4,-1781,1,-1389,6,-309,0,-318,6,-196,8,-828,9,-5112,9,384,9,-25,2,274,5,842,7,-3256,2,-1506,0,-363,6,-1,2,-15,6,-834,3,296,4,-3,6,1047,3,217,8,-1888,5,0,2514,0,86,0, 
1,4000,187,8,-1373,7,-1785,6,-1393,2,-308,1,-318,3,-193,8,-826,2,-5187,0,382,5,-22,2,290,7,826,2,-3256,8,-1508,1,-367,5,-1,8,-15,6,-841,8,290,4,-3,3,1054,5,216,6,-1896,0,0,2520,0,87,0, 
1,4033,189,6,-1370,4,-1781,7,-1388,1,-303,6,-315,3,-192,0,-821,7,-5483,4,386,1,-9,0,296,4,828,0,-3259,5,-1513,8,-375,3,-1,5,-15,6,-831,3,296,7,-3,6,1061,7,212,1,-1895,1,0,2526,0,88,0, 
1,4067,191,4,-1371,0,-1780,2,-1386,3,-307,8,-317,1,-192,0,-817,2,-5483,4,394,2,-3,0,297,3,825,9,-3258,3,-1512,3,-377,1,-1,5,-15,6,-828,9,305,1,-3,9,1055,7,215,1,-1890,9,0,2532,0,89,0, 
1,4100,186,3,-1376,7,-1783,5,-1392,3,-315,3,-318,9,-192,6,-824,4,-5335,2,385,5,-5,1,298,8,822,0,-3263,1,-1510,2,-382,2,-1,8,-15,6,-832,2,302,7,-3,6,1049,7,212,7,-1893,3,0,2538,0,90,0, 
1,4133,186,3,-1375,5,-1781,4,-1392,3,-315,9,-321,9,-194,4,-826,5,-4964,7,378,0,-15,0,290,7,827,1,-3258,0,-1518,0,-379,8,-1,5,-15,3,-835,2,291,9,-3,9,1044,9,214,8,-1897,5,0,2544,0,91,0, 
1,4167,189,9,-1365,6,-1781,7,-1388,4,-306,6,-320,7,-189,6,-826,2,-5038,8,384,9,-11,4,286,2,826,8,-3260,1,-1527,0,-378,3,0,9,-15,3,-830,1,291,9,-3,3,1050,0,210,3,-1893,6,0,2550,0,92,0, 
1,4200,182,4,-1375,8,-1788,0,-1391,7,-312,9,-322,8,-192,0,-826,2,-5261,1,381,9,-19,2,281,4,836,1,-3269,1,-1526,7,-371,7,-1,2,-15,0,-841,2,281,7,-3,9,1044,6,220,5,-1887,9,0,2556,0,93,0, 
1,4233,186,3,-1365,9,-1777,5,-1387,5,-310,2,-317,4,-190,5,-824,1,-5335,2,379,8,-21,3,291,9,841,8,-3272,7,-1528,2,-382,2,-1,5,-15,3,-847,2,300,3,-3,3,1045,5,220,2,-1890,3,0,2562,0,94,0, 
1,4267,183,9,-1369,5,-1774,5,-1388,4,-317,1,-324,9,-197,4,-827,1,-5409,3,385,2,-19,5,289,8,852,6,-3267,0,-1524,6,-390,6,-1,8,-15,3,-838,8,301,2,-3,9,1055,4,213,3,-1888,8,0,2568,0,95,0, 
1,4300,183,0,-1370,4,-1777,2,-1391,1,-314,1,-323,4,-196,8,-832,8,-5335,2,382,8,-14,1,271,5,837,0,-3271,5,-1518,9,-382,2,-1,5,-15,9,-842,1,291,9,-3,6,1047,9,219,9,-1882,8,0,2574,0,96,0, 
1,4333,182,4,-1367,1,-1775,7,-1387,5,-309,6,-318,6,-196,8,-827,7,-4964,7,389,1,-9,6,292,5,834,0,-3265,8,-1523,4,-384,6,-1,5,-15,3,-838,8,304,2,-3,9,1056,0,220,8,-1902,3,0,2580,0,97,0, 
1,4367,183,3,-1373,4,-1776,0,-1389,0,-311,7,-320,7,-196,5,-827,7,-5038,8,380,7,-9,9,294,3,829,2,-3254,4,-1505,7,-381,9,-1,5,-15,9,-836,7,306,3,-3,9,1047,3,221,7,-1899,3,0,2586,0,98,0, 
1,4400,181,5,-1368,3,-1781,4,-1387,5,-315,0,-320,1,-193,8,-825,9,-5187,0,385,2,-11,1,293,1,830,7,-3263,1,-1505,7,-372,3,-1,2,-15,6,-828,0,306,9,-3,6,1041,3,228,0,-1883,7,0,2592,0,99,0, 
1,4433,178,8,-1382,7,-1782,6,-1391,7,-307,2,-320,7,-196,8,-826,5,-5557,5,380,7,-20,4,267,3,817,2,-3267,3,-1506,6,-366,9,-1,5,-15,6,-835,2,292,8,-3,9,1036,2,225,6,-1914,3,0,2598,0,100,0, 
1,4467,177,6,-1378,2,-1776,3,-1387,8,-310,8,-325,2,-199,2,-828,9,-5409,3,386,4,-15,6,286,2,815,4,-3272,1,-1513,8,-384,9,-1,5,-15,3,-828,0,293,7,-3,6,1043,4,220,8,-1902,6,0,2604,0,101,0, 
1,4500,180,3,-1377,9,-1776,3,-1387,5,-310,5,-323,1,-201,0,-827,7,-5335,2,392,1,1,8,295,8,826,2,-3271,5,-1525,2,-400,8,-1,5,-15,3,-819,6,296,7,-3,6,1061,7,216,0,-1886,7,0,2610,0,102,0, 
1,4533,179,4,-1375,8,-1771,2,-1387,2,-309,6,-321,3,-205,5,-828,9,-4964,7,398,4,0,9,297,6,828,9,-3275,7,-1526,7,-405,3,-1,5,-15,9,-826,5,299,7,-3,6,1058,7,218,7,-1892,1,0,2616,0,103,0, 
1,4567,183,9,-1375,8,-1777,8,-1386,3,-308,7,-317,1,-198,0,-826,2,-4964,7,390,9,-4,2,300,0,838,8,-3267,3,-1518,3,-392,1,-1,2,-15,6,-827,1,305,1,-3,6,1057,2,222,0,-1891,2,0,2622,0,104,0, 
1,4600,185,1,-1364,4,-1778,7,-1385,1,-309,6,-319,8,-197,4,-825,3,-5112,9,389,4,-6,6,304,5,835,2,-3270,3,-1515,0,-390,0,-1,2,-15,9,-824,7,303,0,-3,9,1052,7,225,3,-1891,5,0,2628,0,105,0, 
1,4633,184,5,-1367,1,-1776,6,-1385,1,-309,9,-317,7,-194,7,-825,6,-5483,4,395,4,-3,0,303,6,838,2,-3281,7,-1509,0,-384,0,-1,5,-15,9,-828,3,307,8,-3,6,1065,0,225,9,-1871,4,0,2634,0,106,0, 
1,4667,183,6,-1360,8,-1779,3,-1389,3,-313,5,-314,1,-198,3,-829,2,-5335,2,387,0,-4,5,290,1,827,4,-3283,5,-1513,8,-385,8,-1,8,-15,6,-829,8,301,5,-3,6,1056,3,218,7,-1863,9,0,2640,0,107,0, 
1,4700,177,9,-1373,1,-1783,5,-1394,7,-315,0,-317,4,-194,4,-830,4,-5187,0,376,5,-18,0,278,4,814,8,-3280,8,-1515,9,-381,6,-1,2,-15,3,-849,0,300,3,-3,3,1042,2,217,8,-1874,4,0,2646,0,108,0, 
1,4733,174,3,-1380,6,-1792,8,-1401,6,-333,9,-331,2,-202,2,-837,6,-4964,7,374,1,-21,0,279,9,809,4,-3288,6,-1518,0,-380,4,-1,5,-15,6,-842,7,293,7,-3,6,1041,6,214,8,-1906,5,0,2652,0,109,0, 
1,4767,168,6,-1377,6,-1785,0,-1393,8,-324,3,-325,8,-201,0,-834,9,-4964,7,381,6,-15,0,288,3,799,8,-3288,9,-1519,5,-389,1,-1,2,-15,6,-836,1,296,7,-3,9,1047,3,217,5,-1913,4,0,2658,0,110,0, 
1,4800,171,9,-1380,9,-1783,8,-1394,1,-324,3,-320,7,-203,1,-834,0,-5187,0,378,0,-13,8,288,3,801,6,-3291,6,-1524,9,-389,7,-1,5,-15,6,-837,3,300,0,-3,6,1044,9,228,3,-1893,3,0,2664,0,111,0, 
1,4833,174,0,-1383,0,-1787,4,-1397,1,-314,7,-319,2,-203,1,-831,9,-5483,4,377,1,-17,1,285,9,801,9,-3289,8,-1521,6,-390,6,0,9,-15,9,-838,2,298,5,-3,6,1044,9,229,8,-1889,4,0,2670,0,112,0, 
1,4867,170,1,-1380,0,-1793,1,-1399,2,-315,3,-318,0,-201,0,-836,4,-5335,2,372,0,-24,0,280,2,809,1,-3288,6,-1517,1,-382,2,-1,8,-15,6,-840,9,295,8,-3,6,1047,0,227,4,-1902,0,0,2676,0,113,0, 
1,4900,175,5,-1376,1,-1788,6,-1394,7,-320,4,-321,6,-199,2,-835,5,-5335,2,378,9,-15,9,293,7,819,3,-3291,3,-1521,0,-384,9,0,9,-15,6,-838,2,308,7,-3,3,1055,1,229,2,-1896,9,0,2682,0,114,0, 
1,4933,172,5,-1378,8,-1792,2,-1397,7,-326,7,-320,4,-201,6,-837,3,-4816,5,380,7,-22,5,300,3,819,9,-3292,5,-1525,8,-392,4,-1,5,-15,9,-836,1,301,5,-3,3,1053,6,222,6,-1895,4,0,2688,0,115,0, 
1,4967,174,3,-1384,5,-1796,4,-1403,1,-322,2,-313,2,-201,0,-839,7,-4890,6,371,4,-25,2,291,9,806,4,-3287,7,-1522,8,-386,1,0,9,-15,3,-843,9,291,0,-3,3,1050,3,215,1,-1870,5,0,2694,0,116,0, 
1,5000,166,5,-1392,9,-1798,2,-1404,6,-324,6,-318,0,-201,6,-845,7,-5187,0,370,2,-28,2,271,2,795,0,-3293,4,-1519,2,-369,0,-1,2,-15,3,-845,1,284,7,-3,6,1047,0,219,3,-1885,5,0,2700,0,117,0, 
1,5033,174,3,-1382,7,-1787,7,-1392,6,-309,6,-309,0,-200,1,-836,1,-5261,1,382,8,-15,9,282,6,819,3,-3291,0,-1515,9,-372,0,-1,2,-15,6,-840,3,296,1,-3,6,1057,8,222,6,-1880,7,0,2706,0,118,0, 
1,5067,170,1,-1380,9,-1789,8,-1392,0,-315,0,-319,2,-207,9,-840,0,-5557,5,383,1,-12,0,290,7,804,0,-3283,2,-1524,3,-393,0,-1,8,-15,6,-845,4,291,3,-3,9,1047,0,209,7,-1874,4,0,2712,0,119,0, 
1,5100,173,4,-1384,2,-1789,5,-1392,0,-330,3,-322,2,-208,2,-837,9,-5112,9,381,9,-18,6,286,8,795,9,-3274,8,-1518,3,-391,8,-1,2,-15,6,-843,9,297,3,-3,6,1043,1,210,6,-1887,9,0,2718,0,120,0, 
1,5133,171,9,-1379,1,-1783,8,-1395,0,-331,2,-324,6,-207,9,-836,7,-5038,8,375,9,-16,2,288,0,816,6,-3279,0,-1515,3,-389,4,-1,8,-15,6,-839,4,308,7,-3,6,1048,5,212,7,-1899,0,0,2724,0,121,0, 
1,5167,171,6,-1380,9,-1782,9,-1391,1,-333,0,-322,2,-202,8,-831,6,-5038,8,381,0,-16,5,297,3,810,0,-3289,5,-1525,8,-390,6,0,9,-15,0,-833,4,312,0,-3,9,1053,3,215,4,-1894,2,0,2730,0,122,0, 
1,5200,177,3,-1370,4,-1775,7,-1385,4,-326,7,-320,4,-203,4,-826,2,-5261,1,387,3,-7,5,300,6,825,9,-3295,8,-1526,7,-396,6,-1,2,-15,6,-829,5,314,1,-3,9,1061,1,209,4,-1889,1,0,2736,0,123,0, 
1,5233,175,2,-1377,3,-1782,3,-1389,3,-327,0,-312,3,-197,1,-823,2,-5409,3,387,9,-11,4,296,7,816,6,-3288,3,-1519,5,-389,4,-1,5,-15,6,-829,2,311,7,-3,6,1063,5,212,4,-1884,9,0,2742,0,124,0, 
1,5267,173,7,-1374,3,-1785,6,-1392,0,-324,6,-311,7,-197,1,-821,4,-5409,3,378,6,-20,4,294,6,808,5,-3294,9,-1515,9,-375,6,-1,5,-15,3,-833,7,300,0,-3,3,1056,3,221,1,-1894,2,0,2748,0,125,0, 
1,5300,173,7,-1376,7,-1787,1,-1392,0,-321,3,-303,3,-190,2,-823,2,-5261,1,380,1,-15,0,288,6,808,5,-3285,3,-1515,3,-374,1,-1,2,-15,6,-832,2,299,7,-3,3,1063,2,219,0,-1871,7,0,2754,0,126,0, 
1,5333,172,8,-1378,2,-1783,8,-1389,0,-327,0,-302,1,-192,9,-825,6,-4890,6,381,3,-13,8,294,9,821,1,-3290,1,-1511,1,-376,2,-1,2,-15,3,-833,1,304,5,-3,9,1066,5,211,2,-1859,4,0,2760,0,127,0, 
1,5367,176,7,-1377,3,-1781,4,-1387,8,-323,1,-299,1,-189,6,-825,0,-4890,6,392,7,-8,7,300,6,820,8,-3288,0,-1508,4,-368,1,-1,2,-15,6,-828,6,307,5,-3,9,1050,0,222,3,-1871,4,0,2766,0,128,0, 
1,5400,179,4,-1371,0,-1780,5,-1386,3,-330,0,-306,0,-195,0,-824,4,-5261,1,388,5,-9,3,295,8,818,1,-3292,8,-1515,6,-385,8,-1,5,-15,6,-826,5,304,2,-3,9,1050,6,215,4,-1885,5,0,2772,0,129,0, 
1,5433,178,8,-1375,5,-1780,5,-1391,4,-336,0,-319,8,-197,7,-831,6,-5557,5,374,4,-24,3,282,9,809,4,-3291,9,-1515,3,-390,3,-1,5,-15,3,-839,1,305,4,-3,9,1053,3,209,4,-1899,6,0,2778,0,130,0, 
1,5467,174,0,-1380,6,-1790,1,-1399,5,-349,5,-319,2,-197,4,-837,9,-5483,4,376,2,-31,8,283,5,807,6,-3295,8,-1515,6,-384,0,-1,2,-15,3,-844,2,295,2,-3,6,1048,8,209,7,-1883,4,0,2784,0,131,0, 
1,5500,174,6,-1370,4,-1791,6,-1401,9,-344,7,-316,8,-198,0,-838,5,-5261,1,372,3,-33,6,284,1,796,5,-3303,3,-1522,8,-378,9,-1,5,-15,3,-848,7,289,5,-3,9,1039,8,207,0,-1889,1,0,2790,0,132,0, 
1,5533,169,2,-1372,8,-1793,1,-1407,0,-343,8,-319,8,-201,9,-838,8,-5038,8,354,6,-43,2,272,7,786,9,-3306,0,-1519,5,-373,2,0,9,-15,3,-852,6,281,1,-3,6,1021,2,219,6,-1896,0,0,2796,0,133,0, 
1,5567,167,4,-1386,3,-1791,3,-1405,2,-355,2,-324,0,-202,5,-842,4,-4964,7,365,4,-41,1,270,3,783,0,-3293,7,-1517,4,-375,3,-1,2,-15,3,-852,6,279,9,-3,6,1030,2,219,9,-1922,7,0,2802,0,134,0, 
1,5600,174,0,-1379,4,-1792,5,-1403,7,-350,4,-320,7,-202,5,-834,6,-5187,0,371,1,-30,3,270,9,791,1,-3294,0,-1515,3,-390,6,-1,2,-15,3,-852,0,277,5,-3,9,1040,1,200,4,-1917,6,0,2808,0,135,0, 
1,5633,170,1,-1379,1,-1796,7,-1404,9,-348,9,-318,0,-206,7,-835,5,-5483,4,372,9,-26,7,275,7,803,1,-3294,9,-1517,7,-394,5,-1,5,-15,3,-844,5,288,6,-4,2,1049,4,191,7,-1920,9,0,2814,0,136,0, 
1,5667,175,2,-1376,4,-1800,3,-1403,1,-342,6,-315,6,-200,4,-836,7,-5335,2,378,9,-30,3,274,5,791,1,-3288,3,-1518,9,-390,3,-1,5,-15,6,-848,7,302,4,-3,9,1056,0,203,4,-1898,4,0,2820,0,137,0, 
1,5700,173,4,-1375,2,-1790,7,-1397,4,-342,9,-312,6,-204,6,-837,9,-5261,1,396,3,-27,6,291,0,802,5,-3285,3,-1522,2,-393,0,-1,5,-15,9,-848,7,301,8,-3,6,1058,1,204,6,-1871,7,0,2826,0,138,0, 
1,5733,177,6,-1367,1,-1794,3,-1402,5,-344,1,-323,4,-204,3,-845,7,-5038,8,386,4,-31,2,282,0,832,5,-3291,6,-1524,9,-400,8,-1,2,-15,9,-849,9,288,6,-3,9,1047,0,200,1,-1884,3,0,2832,0,139,0, 
1,5767,178,5,-1373,7,-1800,3,-1407,0,-343,5,-321,3,-200,4,-846,0,-5112,9,378,9,-30,3,265,8,823,5,-3287,1,-1516,8,-387,0,-1,5,-15,6,-855,0,295,8,-3,3,1043,7,214,8,-1894,5,0,2838,0,140,0, 
1,5800,175,5,-1379,7,-1803,6,-1408,5,-357,0,-325,2,-201,6,-849,6,-5261,1,379,2,-36,3,276,3,815,1,-3281,4,-1511,1,-377,1,-1,2,-15,3,-852,9,297,3,-3,6,1034,7,208,8,-1899,6,0,2844,0,141,0, 
1,5833,178,8,-1381,8,-1801,2,-1408,2,-356,1,-325,5,-206,4,-843,9,-5483,4,385,8,-34,2,283,5,818,7,-3268,5,-1509,9,-385,2,-1,2,-15,6,-855,3,293,1,-3,9,1035,0,203,7,-1883,4,0,2850,0,142,0, 
1,5867,177,0,-1379,4,-1803,0,-1410,6,-360,9,-327,9,-207,6,-849,9,-5483,4,381,0,-34,2,281,4,813,0,-3278,1,-1516,5,-384,0,0,9,-15,6,-852,0,286,5,-3,6,1031,1,198,6,-1893,0,0,2856,0,143,0, 
1,5900,169,8,-1383,3,-1807,8,-1419,3,-366,0,-329,4,-207,3,-855,6,-5409,3,369,0,-48,9,273,3,806,4,-3289,5,-1520,1,-379,8,-1,2,-15,3,-864,0,280,8,-3,9,1018,5,206,1,-1899,3,0,2862,0,144,0, 
1,5933,171,6,-1383,6,-1802,4,-1414,2,-351,3,-322,8,-207,6,-849,3,-5038,8,379,5,-49,2,258,6,808,5,-3278,1,-1524,0,-391,2,-1,2,-15,6,-865,2,271,8,-3,3,1028,7,209,1,-1912,5,0,2868,0,145,0, 
1,5967,179,4,-1371,0,-1801,2,-1409,1,-342,0,-325,5,-205,5,-848,1,-5112,9,380,1,-42,3,259,8,821,7,-3268,5,-1515,3,-387,6,0,9,-15,6,-863,7,267,9,-3,9,1032,3,208,2,-1919,7,0,2874,0,146,0, 
1,6000,178,2,-1373,4,-1801,5,-1400,7,-333,9,-323,1,-209,7,-843,3,-5112,9,380,7,-35,1,280,8,806,4,-3277,5,-1520,7,-391,5,-1,5,-15,9,-845,4,278,7,-3,9,1046,1,211,5,-1905,6,0,2880,0,147,0, 
1,6033,177,6,-1374,6,-1796,4,-1395,9,-339,3,-318,9,-209,4,-836,4,-5335,2,378,9,-24,9,285,9,813,0,-3276,6,-1505,4,-387,9,-1,5,-15,0,-838,5,291,0,-3,6,1046,7,213,3,-1892,4,0,2886,0,148,0, 
1,6067,175,5,-1378,5,-1802,7,-1392,9,-348,0,-316,5,-201,9,-837,0,-5409,3,386,4,-28,8,281,1,821,4,-3280,8,-1514,7,-388,2,-1,2,-15,6,-842,1,296,1,-3,6,1043,4,219,6,-1888,2,0,2892,0,149,0, 
1,6100,173,7,-1373,1,-1799,1,-1392,6,-350,1,-323,4,-202,8,-840,3,-5261,1,379,2,-31,8,276,9,810,6,-3285,6,-1513,8,-380,7,0,9,-15,9,-852,0,300,0,-3,6,1049,1,212,7,-1876,8,0,2898,0,150,0, 
1,6133,176,1,-1367,4,-1792,5,-1389,0,-338,1,-316,5,-198,3,-838,5,-4964,7,371,7,-28,5,284,4,817,5,-3283,8,-1519,5,-374,1,-1,5,-16,2,-849,3,293,4,-3,6,1049,7,217,8,-1890,9,0,2904,0,151,0, 
1,6167,175,5,-1369,8,-1797,3,-1393,8,-338,1,-315,3,-203,1,-841,2,-4890,6,369,3,-31,5,276,0,819,9,-3282,9,-1513,5,-380,1,-1,5,-15,3,-848,1,286,5,-3,6,1041,3,213,9,-1890,3,0,2910,0,152,0, 
1,6200,178,2,-1368,9,-1791,0,-1389,0,-342,0,-311,4,-198,9,-835,2,-5335,2,379,2,-17,4,282,0,815,7,-3294,0,-1522,8,-390,9,-1,5,-15,6,-836,7,303,0,-3,9,1048,8,215,4,-1882,2,0,2916,0,153,0, 
1,6233,178,8,-1370,7,-1790,7,-1392,0,-347,4,-312,0,-197,4,-839,1,-5409,3,378,3,-17,4,284,7,825,9,-3289,8,-1507,2,-384,3,-1,5,-15,0,-838,5,304,5,-3,6,1053,3,210,0,-1872,6,0,2922,0,154,0, 
1,6267,176,1,-1370,1,-1789,2,-1390,8,-351,0,-313,2,-195,0,-841,8,-5483,4,385,8,-17,1,285,6,820,8,-3279,6,-1510,2,-387,6,-1,2,-15,3,-831,9,296,7,-3,6,1053,9,208,2,-1881,9,0,2928,0,155,0, 
1,6300,174,9,-1374,3,-1791,6,-1401,6,-351,3,-315,0,-198,3,-845,4,-5187,0,378,0,-33,0,275,1,822,9,-3285,6,-1509,0,-375,6,-1,5,-15,6,-847,2,283,2,-3,9,1040,1,212,4,-1901,7,0,2934,0,156,0, 
1,6333,179,7,-1367,4,-1785,3,-1395,9,-358,2,-322,8,-202,2,-842,1,-5187,0,384,0,-28,5,289,2,822,9,-3290,1,-1510,8,-386,1,-1,2,-15,6,-845,1,300,0,-3,6,1046,7,201,6,-1915,5,0,2940,0,157,0, 
1,6367,179,7,-1371,9,-1795,8,-1398,6,-357,6,-325,8,-211,2,-844,2,-4964,7,380,7,-28,2,288,3,812,4,-3288,9,-1515,9,-401,7,-1,5,-15,3,-859,2,298,8,-3,6,1049,4,191,7,-1896,6,0,2946,0,158,0, 
1,6400,174,6,-1372,2,-1805,4,-1404,3,-364,8,-326,4,-211,2,-845,4,-5187,0,375,0,-34,2,282,6,800,4,-3296,4,-1521,9,-403,2,-1,2,-15,6,-853,2,289,2,-3,6,1043,1,195,0,-1895,4,0,2952,0,159,0, 
1,6433,171,9,-1386,6,-1814,7,-1411,2,-366,3,-324,3,-207,6,-846,9,-5557,5,375,6,-36,6,271,8,790,2,-3298,2,-1509,3,-375,0,-1,8,-15,3,-847,5,284,1,-3,3,1040,4,204,9,-1896,0,0,2958,0,160,0, 
1,6467,175,8,-1376,1,-1807,2,-1410,9,-362,7,-323,4,-210,3,-843,0,-5409,3,378,0,-35,7,263,4,798,0,-3289,2,-1513,2,-387,6,-1,5,-15,3,-849,3,278,1,-3,3,1044,9,207,0,-1904,1,0,2964,0,161,0, 
1,6500,178,8,-1371,3,-1800,0,-1405,5,-360,6,-323,4,-210,9,-843,9,-5261,1,378,0,-29,7,285,6,818,1,-3291,6,-1513,8,-410,1,-1,8,-15,6,-848,4,291,6,-3,6,1047,6,185,7,-1906,2,0,2970,0,162,0, 
1,6533,179,7,-1372,5,-1799,1,-1405,2,-351,9,-319,2,-200,4,-841,5,-5187,0,383,4,-21,3,285,6,812,1,-3282,3,-1506,9,-401,1,-1,5,-15,9,-831,3,292,2,-3,6,1048,2,204,0,-1895,1,0,2976,0,163,0, 
1,6567,179,7,-1374,9,-1792,8,-1394,7,-350,4,-323,7,-207,0,-840,9,-4964,7,394,2,-6,6,286,2,823,5,-3273,0,-1511,1,-396,6,0,9,-15,6,-819,9,300,6,-3,9,1057,5,193,5,-1897,2,0,2982,0,164,0, 
1,6600,179,7,-1367,4,-1791,9,-1396,8,-351,3,-320,4,-203,7,-838,8,-5187,0,393,6,-11,4,281,7,839,1,-3275,1,-1508,4,-390,6,-1,5,-15,9,-826,5,301,8,-3,6,1044,0,203,1,-1895,4,0,2988,0,165,0, 
1,6633,180,9,-1360,5,-1790,4,-1392,3,-347,4,-323,4,-204,9,-837,9,-5483,4,397,8,-9,9,289,2,842,4,-3279,3,-1509,9,-390,0,-1,5,-15,6,-823,8,292,2,-3,3,1048,8,201,3,-1900,5,0,2994,0,166,0, 
1,6667,183,0,-1357,2,-1791,3,-1392,3,-339,3,-317,4,-203,7,-833,1,-5409,3,398,7,-8,1,291,6,834,3,-3265,2,-1499,4,-385,5,-1,5,-15,6,-825,9,298,2,-3,3,1053,9,207,9,-1900,8,0,3000,0,167,0, 
1,6700,183,3,-1359,0,-1793,7,-1392,3,-339,9,-313,8,-201,6,-832,8,-5187,0,394,2,-17,7,294,3,835,2,-3267,3,-1506,0,-398,7,-1,2,-15,3,-829,2,303,6,-3,9,1055,4,205,5,-1898,4,0,3006,0,168,0, 
1,6733,186,3,-1356,6,-1788,9,-1392,9,-348,3,-316,5,-199,5,-831,6,-4964,7,387,0,-16,5,288,6,844,5,-3264,9,-1493,7,-390,6,-1,2,-15,0,-827,1,297,9,-3,6,1051,5,214,5,-1890,0,0,3012,0,169,0, 
1,6767,176,7,-1369,8,-1800,0,-1402,2,-355,8,-319,5,-200,4,-842,1,-4890,6,379,5,-36,6,275,1,816,6,-3274,8,-1497,6,-374,7,-1,8,-15,6,-842,1,289,2,-3,6,1033,2,217,5,-1879,2,0,3018,0,170,0, 
1,6800,177,0,-1363,2,-1794,6,-1392,3,-350,7,-317,4,-202,8,-836,1,-5112,9,380,4,-18,9,291,3,821,7,-3277,2,-1512,0,-391,5,-1,5,-15,3,-840,9,298,2,-3,9,1044,3,205,2,-1878,6,0,3024,0,171,0, 
1,6833,184,5,-1350,6,-1778,4,-1378,2,-346,8,-310,2,-201,9,-826,2,-5483,4,395,1,0,0,312,3,842,7,-3273,6,-1510,5,-427,5,-1,2,-15,6,-817,8,318,0,-3,9,1060,5,179,7,-1894,8,0,3030,0,172,0, 
1,6867,178,8,-1359,6,-1789,2,-1388,7,-359,7,-317,4,-208,5,-835,5,-5409,3,380,1,-11,1,297,3,820,2,-3278,1,-1511,7,-424,8,-1,5,-15,3,-831,0,301,8,-3,6,1058,1,180,3,-1906,2,0,3036,0,173,0, 
1,6900,177,6,-1361,4,-1792,5,-1386,3,-348,9,-309,3,-205,5,-836,1,-5261,1,389,4,-15,0,292,8,813,9,-3282,6,-1516,2,-417,9,-1,5,-15,6,-836,7,298,2,-3,6,1059,3,186,6,-1883,7,0,3042,0,174,0, 
1,6933,172,5,-1371,0,-1792,8,-1386,6,-343,5,-312,6,-205,2,-837,9,-5038,8,390,9,-6,9,290,1,823,5,-3291,0,-1520,7,-419,1,-1,2,-15,3,-828,0,309,3,-3,6,1060,5,195,6,-1870,2,0,3048,0,175,0, 
1,6967,167,4,-1371,6,-1795,8,-1387,5,-348,6,-315,9,-210,6,-836,4,-5038,8,381,6,-2,7,298,5,810,0,-3293,1,-1518,6,-413,7,-1,5,-15,6,-824,7,312,6,-3,6,1052,1,198,0,-1875,6,0,3054,0,176,0, 
1,7000,172,5,-1371,3,-1792,5,-1385,7,-354,0,-315,6,-207,6,-837,9,-5187,0,392,4,-3,0,303,9,809,4,-3295,5,-1507,8,-410,1,-1,5,-15,9,-830,7,311,1,-3,6,1056,6,204,3,-1892,4,0,3060,0,177,0, 
1,7033,173,7,-1367,7,-1794,3,-1387,8,-356,4,-315,9,-208,2,-840,9,-5483,4,392,4,-6,3,301,5,814,5,-3292,8,-1506,9,-409,2,-1,5,-15,9,-825,3,305,7,-3,9,1057,8,195,9,-1899,9,0,3066,0,178,0, 
1,7067,183,0,-1353,3,-1791,6,-1389,3,-350,4,-309,9,-206,1,-836,4,-5335,2,396,3,-4,2,301,5,854,4,-3282,3,-1500,0,-405,6,-1,2,-15,6,-814,2,309,3,-3,6,1059,0,196,5,-1892,4,0,3072,0,179,0, 
1,7100,184,8,-1354,8,-1793,4,-1391,1,-361,8,-317,4,-204,9,-835,2,-5187,0,399,0,-7,2,288,6,843,9,-3284,7,-1499,1,-400,2,-1,2,-15,6,-816,9,296,7,-3,9,1051,2,200,7,-1881,6,0,3078,0,180,0, 
1,7133,178,5,-1359,9,-1796,1,-1390,5,-368,1,-317,7,-210,3,-837,9,-4890,6,399,6,-12,0,295,5,826,2,-3279,9,-1505,7,-403,2,-1,5,-15,9,-824,4,304,2,-3,6,1055,1,199,5,-1878,3,0,3084,0,181,0, 
1,7167,180,6,-1355,1,-1793,1,-1395,6,-372,3,-314,7,-209,7,-839,7,-5038,8,387,9,-13,5,301,5,844,5,-3281,1,-1508,7,-392,7,-1,8,-15,6,-822,6,308,7,-3,3,1053,0,207,3,-1882,5,0,3090,0,182,0, 
1,7200,181,2,-1357,2,-1791,6,-1391,7,-369,9,-317,7,-211,2,-844,2,-5261,1,397,8,-6,3,295,8,828,6,-3274,2,-1506,6,-403,8,-1,2,-15,3,-817,5,303,9,-3,3,1058,7,202,8,-1911,6,0,3096,0,183,0, 
1,7233,181,5,-1354,5,-1789,5,-1384,8,-368,4,-317,7,-213,9,-843,3,-5483,4,404,7,-10,8,297,6,825,3,-3277,2,-1504,8,-402,3,-1,5,-15,6,-816,9,293,4,-3,9,1069,5,201,6,-1920,3,0,3102,0,184,0, 
1,7267,180,0,-1362,6,-1792,2,-1385,1,-362,1,-319,2,-216,3,-845,4,-5335,2,413,7,-1,5,294,0,822,6,-3277,5,-1500,6,-407,4,-1,8,-15,0,-822,0,299,1,-3,9,1070,1,202,2,-1902,0,0,3108,0,185,0, 
1,7300,182,1,-1362,6,-1792,2,-1385,7,-357,0,-309,3,-210,0,-843,3,-5261,1,402,0,0,3,293,7,819,0,-3272,4,-1494,3,-392,7,-1,5,-15,3,-819,3,305,1,-3,9,1066,8,198,0,-1899,3,0,3114,0,186,0, 
1,7333,177,9,-1370,4,-1788,6,-1387,2,-377,4,-312,9,-207,9,-847,8,-4890,6,409,5,-3,0,302,7,820,5,-3274,2,-1494,9,-398,4,-1,5,-15,9,-818,1,312,9,-3,6,1068,0,201,6,-1884,9,0,3120,0,187,0, 
1,7367,179,1,-1370,4,-1800,3,-1399,5,-395,4,-318,3,-215,1,-853,5,-5112,9,399,0,-20,4,292,2,812,7,-3275,7,-1496,1,-390,6,-1,8,-15,3,-836,7,304,5,-3,6,1061,4,198,6,-1890,3,0,3126,0,188,0, 
1,7400,174,0,-1372,5,-1799,7,-1401,0,-395,7,-324,3,-213,0,-855,0,-5261,1,402,9,-21,6,294,6,825,3,-3274,5,-1499,1,-387,0,-1,8,-15,6,-825,3,298,5,-3,6,1053,3,199,2,-1893,6,0,3132,0,189,0, 
1,7433,177,0,-1364,4,-1797,3,-1396,8,-397,2,-326,1,-216,6,-853,5,-5483,4,403,5,-12,3,293,4,845,1,-3282,3,-1502,4,-379,2,-1,5,-15,3,-823,5,298,8,-3,9,1061,4,204,3,-1880,7,0,3138,0,190,0, 
1,7467,176,7,-1366,8,-1802,7,-1403,4,-402,6,-325,8,-214,2,-855,9,-5409,3,400,2,-9,6,278,7,835,8,-3278,1,-1503,9,-372,9,-1,2,-15,3,-840,3,298,2,-3,3,1056,0,207,6,-1874,4,0,3144,0,191,0, 
1,7500,175,5,-1369,8,-1801,2,-1396,2,-398,4,-320,7,-207,3,-852,9,-5335,2,392,4,-6,6,289,5,830,1,-3276,0,-1504,8,-352,5,-1,5,-15,9,-829,5,299,1,-3,9,1053,6,216,9,-1887,0,0,3150,0,192,0, 
1,7533,169,2,-1374,9,-1807,2,-1397,7,-402,3,-328,5,-207,9,-855,0,-4816,5,387,3,-6,9,289,8,812,4,-3287,1,-1509,3,-345,0,-1,2,-15,3,-822,9,295,5,-3,6,1051,8,213,3,-1898,7,0,3156,0,193,0, 
1,7567,169,8,-1376,1,-1808,4,-1396,2,-397,5,-323,4,-211,5,-851,4,-5038,8,391,5,-12,6,289,8,799,8,-3285,9,-1514,7,-365,1,-1,8,-15,3,-827,7,297,9,-3,6,1063,5,197,4,-1895,1,0,3162,0,194,0, 
1,7600,172,5,-1371,0,-1791,6,-1389,3,-391,5,-322,8,-215,4,-848,7,-5112,9,400,5,0,6,303,0,806,1,-3282,3,-1517,4,-377,1,-1,5,-15,6,-815,1,312,3,-3,6,1063,5,192,3,-1887,3,0,3168,0,195,0, 
1,7633,175,5,-1374,3,-1791,6,-1390,2,-393,3,-320,7,-219,3,-852,3,-5483,4,408,9,-9,3,294,3,813,3,-3288,9,-1516,2,-375,3,-1,2,-15,9,-829,5,311,7,-3,6,1058,1,198,9,-1875,6,0,3174,0,196,0, 
1,7667,175,5,-1368,3,-1795,8,-1399,5,-393,6,-321,0,-217,8,-856,2,-5409,3,404,1,-16,2,291,9,819,3,-3300,0,-1512,3,-365,1,-1,5,-15,6,-825,9,301,8,-3,6,1054,2,200,4,-1881,0,0,3180,0,197,0, 
1,7700,170,1,-1379,1,-1815,3,-1414,8,-404,7,-327,6,-213,0,-862,8,-5187,0,380,4,-32,4,278,4,791,1,-3305,4,-1509,9,-353,7,-1,5,-15,0,-837,0,289,8,-3,9,1037,7,219,0,-1886,4,0,3186,0,198,0, 
1,7733,172,8,-1378,5,-1805,4,-1403,1,-393,3,-317,4,-207,0,-855,9,-5038,8,395,1,-14,4,286,5,792,6,-3305,4,-1516,8,-372,3,-1,5,-15,3,-825,0,295,8,-3,3,1053,9,207,0,-1895,1,0,3192,0,199,0, 
1,7767,175,8,-1375,2,-1803,3,-1394,4,-384,3,-315,6,-210,3,-850,5,-4816,5,411,9,-9,6,279,0,821,7,-3291,9,-1528,8,-396,6,-1,5,-15,6,-819,9,299,7,-3,3,1068,9,192,6,-1908,6,0,3198,0,200,0, 
1,7800,174,3,-1375,2,-1803,0,-1396,2,-386,4,-327,0,-210,0,-852,0,-5261,1,407,1,-17,1,283,8,819,6,-3292,8,-1521,6,-399,3,-1,5,-15,3,-827,7,293,7,-3,6,1066,5,201,9,-1902,3,0,3204,0,201,0, 
1,7833,176,4,-1370,1,-1794,3,-1398,9,-398,7,-337,2,-216,6,-853,2,-5335,2,403,5,-23,7,281,7,828,6,-3294,0,-1514,1,-387,3,-1,5,-15,3,-844,8,284,1,-3,9,1060,8,197,7,-1895,4,0,3210,0,202,0, 
1,7867,179,1,-1368,3,-1790,7,-1398,0,-393,9,-330,6,-212,7,-847,8,-5409,3,395,7,-26,4,282,6,839,4,-3290,4,-1510,5,-388,8,-1,5,-15,6,-853,5,286,5,-3,3,1054,5,205,2,-1889,7,0,3216,0,203,0, 
1,7900,181,5,-1365,3,-1791,3,-1392,3,-378,6,-320,7,-210,9,-842,4,-5112,9,406,2,-12,6,292,8,830,4,-3287,7,-1505,7,-395,1,-1,8,-15,6,-832,2,299,7,-3,9,1061,4,203,7,-1875,3,0,3222,0,204,0, 
1,7933,179,1,-1368,6,-1797,3,-1393,5,-367,5,-319,8,-210,0,-842,4,-5038,8,407,1,-7,8,287,7,829,8,-3287,1,-1508,4,-392,7,0,9,-15,3,-821,4,298,8,-3,6,1060,2,205,8,-1887,9,0,3228,0,205,0, 
1,7967,174,9,-1380,9,-1810,8,-1401,9,-375,9,-324,0,-213,9,-845,7,-4964,7,400,8,-16,5,281,1,820,8,-3289,2,-1516,5,-391,5,-1,8,-15,9,-824,1,294,0,-3,6,1053,0,208,8,-1886,4,0,3234,0,206,0, 
1,8000,170,7,-1390,8,-1808,1,-1404,9,-375,9,-325,5,-209,7,-850,8,-5187,0,399,6,-23,4,278,4,790,5,-3288,6,-1514,4,-391,8,0,9,-15,6,-837,0,288,0,-3,3,1057,8,202,5,-1865,4,0,3240,0,207,0, 
1,8033,176,7,-1388,1,-1802,7,-1398,3,-366,6,-313,2,-209,1,-843,6,-5409,3,402,0,-23,4,280,2,798,9,-3285,0,-1507,5,-393,6,-1,8,-15,9,-832,8,283,8,-3,6,1058,4,204,6,-1885,8,0,3246,0,208,0, 
1,8067,176,4,-1388,4,-1798,8,-1398,0,-359,1,-315,0,-201,3,-847,2,-5335,2,406,8,-26,4,285,0,808,8,-3284,7,-1510,2,-400,2,-1,2,-15,6,-834,6,294,6,-4,2,1064,1,205,2,-1893,6,0,3252,0,209,0, 
1,8100,174,6,-1393,8,-1802,4,-1398,9,-363,9,-314,7,-210,3,-845,4,-5335,2,402,6,-21,6,290,7,805,8,-3275,7,-1509,9,-390,0,-1,8,-15,9,-836,1,303,9,-3,3,1062,0,204,3,-1890,6,0,3258,0,210,0, 
1,8133,179,1,-1392,6,-1805,1,-1399,8,-360,0,-323,1,-205,5,-844,5,-4890,6,396,6,-17,4,294,3,804,9,-3268,2,-1503,3,-389,7,-1,2,-15,6,-844,8,297,3,-3,9,1061,7,212,7,-1893,9,0,3264,0,211,0, 
1,8167,177,6,-1393,5,-1800,0,-1399,2,-356,7,-322,8,-206,1,-843,3,-4890,6,403,5,-20,1,294,3,812,1,-3270,3,-1499,4,-404,7,-1,5,-15,9,-845,1,309,0,-3,6,1063,8,202,5,-1893,3,0,3270,0,212,0, 
1,8200,179,4,-1390,5,-1800,6,-1396,8,-353,1,-318,3,-202,8,-844,2,-5038,8,401,4,-15,6,298,2,826,5,-3279,0,-1501,2,-396,9,-1,2,-15,6,-837,0,303,6,-3,6,1064,4,204,0,-1917,9,0,3276,0,213,0, 
1,8233,177,6,-1397,1,-1802,4,-1399,5,-342,0,-322,5,-206,7,-850,8,-5483,4,397,5,-11,1,284,1,808,2,-3280,2,-1499,7,-399,0,-1,5,-15,9,-828,3,295,2,-3,3,1062,6,207,0,-1896,9,0,3282,0,214,0, 
1,8267,174,6,-1393,5,-1808,1,-1404,9,-346,2,-325,2,-208,8,-848,1,-5409,3,392,7,-19,2,277,5,818,4,-3271,8,-1492,2,-398,4,-1,2,-15,6,-829,8,295,8,-3,9,1059,6,198,9,-1884,9,0,3288,0,215,0, 
1,8300,177,6,-1397,1,-1805,1,-1401,0,-338,4,-323,1,-208,5,-846,6,-5261,1,394,8,-22,8,277,5,810,0,-3277,5,-1497,6,-403,2,-1,8,-15,6,-840,9,300,3,-3,6,1059,0,193,5,-1882,5,0,3294,0,216,0, 
1,8333,175,8,-1393,5,-1796,4,-1402,5,-331,8,-317,7,-199,5,-843,6,-4964,7,400,5,-27,9,272,4,798,0,-3276,0,-1506,6,-399,6,-1,5,-15,6,-842,7,288,0,-3,9,1056,3,202,2,-1911,9,0,3300,0,217,0, 
1,8367,183,6,-1382,7,-1784,7,-1398,9,-321,0,-314,1,-199,2,-829,5,-4964,7,404,4,-20,4,282,9,820,5,-3276,0,-1504,8,-409,5,-1,8,-15,6,-832,5,287,4,-3,6,1075,8,206,4,-1893,0,0,3306,0,218,0, 
1,8400,189,3,-1378,5,-1777,2,-1393,8,-305,4,-307,2,-193,2,-825,3,-5187,0,404,7,-22,5,287,4,822,0,-3273,6,-1499,4,-403,2,-2,1,-15,6,-843,9,296,1,-3,9,1072,5,213,3,-1861,8,0,3312,0,219,0, 
1,8433,184,5,-1386,6,-1791,9,-1399,2,-320,1,-312,6,-201,6,-832,2,-5335,2,387,6,-30,3,289,5,821,7,-3275,7,-1499,1,-399,6,-1,2,-15,6,-857,1,292,2,-3,6,1059,9,206,4,-1873,8,0,3318,0,220,0, 
1,8467,181,8,-1393,8,-1794,9,-1400,7,-307,2,-311,1,-199,8,-835,2,-5409,3,390,3,-28,2,283,5,796,5,-3267,0,-1500,3,-396,3,-1,2,-15,6,-854,1,290,4,-3,6,1062,0,219,3,-1876,2,0,3324,0,221,0, 
1,8500,185,4,-1399,2,-1797,9,-1399,2,-309,9,-308,7,-195,0,-832,2,-5187,0,398,7,-15,6,286,8,800,7,-3259,2,-1499,4,-407,4,-1,2,-15,0,-827,7,302,4,-3,3,1068,6,217,2,-1879,8,0,3330,0,222,0, 
1,8533,186,0,-1391,1,-1794,6,-1399,5,-313,2,-313,8,-199,8,-833,4,-5038,8,410,1,-11,4,295,2,816,3,-3260,7,-1502,7,-402,3,-1,5,-15,0,-818,7,306,3,-3,6,1070,7,208,8,-1886,4,0,3336,0,223,0, 
1,8567,192,0,-1376,4,-1778,7,-1387,8,-292,8,-310,2,-192,3,-828,0,-5038,8,413,1,-2,1,307,8,819,3,-3263,7,-1505,1,-411,3,-1,2,-15,6,-813,3,318,9,-3,9,1078,2,208,2,-1869,3,0,3342,0,224,0, 
1,8600,184,2,-1390,2,-1778,4,-1393,8,-299,4,-317,1,-192,6,-831,6,-5038,8,400,2,-9,9,297,6,825,9,-3261,9,-1497,6,-394,8,-1,2,-15,6,-828,3,308,1,-3,6,1071,3,219,0,-1878,9,0,3348,0,225,0, 
1,8633,181,2,-1396,8,-1777,8,-1401,9,-302,4,-323,1,-196,8,-834,0,-5483,4,400,2,-29,1,279,9,817,8,-3270,0,-1493,1,-384,0,-1,2,-15,6,-840,3,289,8,-4,2,1064,7,228,0,-1881,9,0,3354,0,226,0, 
1,8667,180,0,-1396,8,-1783,5,-1404,6,-297,0,-321,9,-197,7,-835,5,-5261,1,400,5,-32,7,269,7,831,9,-3274,8,-1502,7,-387,6,-1,5,-15,6,-847,2,278,7,-3,9,1061,1,223,5,-1877,7,0,3360,0,227,0, 
1,8700,187,8,-1382,7,-1772,4,-1389,3,-281,7,-309,0,-193,8,-824,7,-5335,2,414,9,-15,6,286,8,829,8,-3265,8,-1501,8,-413,1,0,9,-15,6,-830,7,291,0,-3,9,1085,1,196,5,-1857,9,0,3366,0,228,0, 
1,8733,187,2,-1389,0,-1779,9,-1393,5,-281,4,-304,8,-188,7,-826,2,-4964,7,397,5,-14,7,291,3,824,4,-3260,1,-1500,6,-399,6,-1,2,-15,6,-827,1,298,8,-3,3,1070,1,212,1,-1867,8,0,3372,0,229,0, 
1,8767,183,9,-1385,4,-1783,5,-1392,9,-276,9,-302,4,-195,0,-824,4,-4816,5,401,4,-13,8,282,0,825,0,-3262,2,-1506,0,-417,0,-1,2,-15,6,-828,9,303,9,-3,6,1065,9,208,8,-1871,4,0,3378,0,230,0, 
1,8800,188,1,-1383,0,-1778,4,-1392,9,-273,6,-306,0,-193,8,-823,2,-5261,1,413,7,-12,6,281,7,825,3,-3249,0,-1503,6,-422,4,-1,5,-15,6,-832,5,309,3,-3,6,1081,5,208,8,-1899,0,0,3384,0,231,0, 
1,8833,189,0,-1388,4,-1777,2,-1393,5,-272,4,-307,5,-193,2,-828,0,-5335,2,413,7,-10,8,299,7,819,9,-3246,9,-1499,4,-414,3,-1,8,-15,6,-826,8,313,5,-3,6,1088,7,216,0,-1888,8,0,3390,0,232,0, 
1,8867,183,0,-1392,0,-1777,5,-1394,1,-273,0,-306,0,-188,1,-826,2,-5483,4,414,6,-13,5,302,1,821,4,-3241,2,-1495,5,-395,4,-1,8,-15,3,-831,3,302,4,-3,9,1081,8,238,5,-1884,3,0,3396,0,233,0, 
1,8900,182,7,-1397,7,-1782,9,-1395,9,-270,9,-306,6,-189,6,-829,8,-5112,9,406,5,-24,3,291,0,825,0,-3242,4,-1495,5,-394,5,-1,2,-15,0,-845,1,291,0,-3,9,1073,1,246,6,-1858,5,0,3402,0,234,0, 
1,8933,191,7,-1386,9,-1763,4,-1385,7,-261,6,-300,6,-182,1,-820,2,-5038,8,429,6,-5,4,301,5,841,2,-3228,6,-1493,4,-407,7,-1,8,-15,3,-833,1,291,9,-3,3,1094,1,226,5,-1849,5,0,3408,0,235,0, 
1,8967,189,0,-1381,8,-1766,7,-1391,4,-268,5,-302,4,-184,8,-826,2,-4890,6,426,9,-2,1,293,4,837,3,-3222,0,-1486,8,-421,8,-1,8,-15,6,-825,0,294,6,-3,6,1093,8,216,6,-1840,5,0,3414,0,236,0, 
1,9000,187,2,-1388,4,-1777,2,-1389,9,-281,1,-303,3,-191,1,-827,1,-5187,0,418,5,-2,4,303,6,827,4,-3227,7,-1486,2,-414,6,-1,2,-15,3,-817,8,320,1,-3,9,1088,7,218,4,-1844,4,0,3420,0,237,0, 
1,9033,193,8,-1387,2,-1776,0,-1384,8,-276,9,-299,7,-186,3,-825,0,-5335,2,425,7,5,7,313,8,830,1,-3218,7,-1493,4,-416,7,-1,5,-15,6,-809,7,335,7,-4,2,1091,1,216,3,-1848,0,0,3426,0,238,0, 
1,9067,194,1,-1383,9,-1764,6,-1386,0,-268,5,-297,6,-188,4,-822,0,-5335,2,428,1,-6,6,301,8,844,5,-3213,9,-1485,9,-413,4,-1,5,-15,6,-816,6,320,1,-3,3,1094,4,213,6,-1847,4,0,3432,0,239,0, 
1,9100,196,5,-1371,0,-1761,0,-1384,8,-263,7,-300,6,-188,4,-822,0,-5261,1,426,3,-1,5,293,1,851,7,-3218,1,-1487,7,-408,6,-1,2,-15,9,-825,9,307,2,-3,9,1086,3,219,0,-1841,1,0,3438,0,240,0, 
1,9133,196,2,-1371,6,-1757,4,-1378,2,-262,5,-299,7,-179,4,-823,2,-4964,7,428,7,3,6,297,0,840,0,-3214,8,-1483,5,-408,0,-1,5,-15,9,-816,3,315,3,-3,3,1080,9,224,1,-1842,6,0,3444,0,241,0, 
1,9167,192,3,-1375,2,-1761,0,-1380,3,-272,4,-296,4,-187,5,-824,7,-4890,6,417,9,3,0,300,0,823,8,-3212,4,-1487,1,-408,3,-1,5,-15,6,-807,6,306,0,-3,9,1072,5,230,4,-1835,4,0,3450,0,242,0, 
1,9200,193,8,-1381,2,-1751,1,-1372,5,-265,2,-294,6,-187,5,-818,1,-5187,0,431,1,15,3,319,2,833,7,-3207,9,-1490,4,-414,9,-1,8,-15,6,-799,2,323,4,-4,2,1083,9,225,6,-1855,2,0,3456,0,243,0, 
1,9233,190,2,-1386,9,-1749,0,-1368,6,-267,3,-295,5,-187,2,-814,2,-5409,3,429,0,16,8,321,0,834,9,-3214,2,-1488,6,-410,4,-1,2,-15,6,-801,3,330,6,-3,6,1088,7,239,4,-1864,8,0,3462,0,244,0, 
1,9267,190,2,-1384,2,-1749,0,-1369,2,-258,6,-294,6,-186,9,-816,6,-5409,3,433,5,14,1,318,3,842,7,-3219,0,-1491,0,-422,7,-1,5,-15,6,-804,6,333,3,-3,3,1099,5,234,9,-1856,1,0,3468,0,245,0, 
1,9300,192,0,-1377,6,-1746,9,-1367,7,-262,8,-297,9,-183,0,-817,5,-5112,9,432,0,12,0,314,1,865,8,-3222,6,-1498,8,-424,5,-1,5,-15,6,-801,6,328,8,-3,6,1094,4,229,2,-1837,5,0,3474,0,246,0, 
1,9333,192,9,-1371,6,-1756,5,-1373,4,-271,8,-297,9,-186,6,-816,9,-5038,8,414,6,6,6,311,4,879,0,-3235,2,-1498,5,-421,2,-1,2,-15,3,-806,1,320,4,-3,6,1086,9,230,1,-1846,8,0,3480,0,247,0, 
1,9367,189,6,-1381,5,-1764,0,-1379,4,-271,5,-303,9,-192,6,-822,0,-4816,5,409,5,3,9,309,0,834,3,-3232,5,-1494,6,-421,5,-1,5,-15,9,-814,5,320,7,-3,6,1077,9,223,5,-1845,9,0,3486,0,248,0, 
1,9400,185,4,-1388,1,-1767,0,-1381,8,-275,7,-310,8,-188,7,-820,5,-5187,0,409,2,4,8,304,2,810,3,-3231,0,-1496,4,-423,3,-1,5,-15,9,-816,3,314,4,-3,6,1078,8,221,7,-1842,9,0,3492,0,249,0, 
1,9433,180,0,-1400,7,-1769,7,-1383,0,-277,8,-304,8,-189,9,-819,9,-5409,3,406,5,0,3,300,9,816,0,-3228,6,-1495,2,-423,3,-1,5,-15,6,-823,8,305,1,-3,6,1070,1,219,3,-1855,2,0,3498,0,250,0, 
1,9467,183,3,-1401,0,-1771,8,-1387,8,-280,5,-310,8,-189,6,-824,1,-5557,5,405,0,-10,5,282,6,799,2,-3224,4,-1492,2,-417,9,-1,2,-15,3,-835,5,294,6,-3,6,1071,9,219,0,-1877,4,0,3504,0,251,0, 
1,9500,183,9,-1395,3,-1767,6,-1387,2,-275,7,-308,1,-191,7,-823,5,-5261,1,414,6,-9,0,274,2,814,5,-3224,4,-1497,0,-420,9,-1,5,-15,9,-822,6,293,4,-3,0,1070,7,224,4,-1877,7,0,3510,0,252,0, 
1,9533,182,4,-1402,2,-1768,5,-1388,4,-276,6,-312,0,-192,9,-822,0,-5038,8,410,1,-13,5,278,1,813,9,-3232,8,-1498,8,-418,2,-1,2,-15,6,-831,3,293,7,-3,6,1070,7,222,6,-1876,2,0,3516,0,253,0, 
1,9567,184,2,-1398,3,-1771,2,-1392,6,-282,3,-315,0,-192,3,-820,5,-4964,7,410,7,-11,7,288,9,830,4,-3233,7,-1495,2,-418,2,-1,8,-15,6,-833,7,290,1,-3,3,1064,1,219,0,-1871,7,0,3522,0,254,0, 
1,9600,186,3,-1392,9,-1773,0,-1390,5,-285,0,-312,0,-192,3,-818,4,-5187,0,414,6,-8,1,298,8,828,9,-3226,5,-1494,6,-409,5,-1,5,-15,6,-825,9,311,1,-3,3,1065,0,225,6,-1858,2,0,3528,0,255,0, 
1,9633,189,9,-1384,5,-1762,2,-1388,1,-286,2,-308,4,-195,6,-818,1,-5483,4,414,3,3,9,311,4,840,9,-3224,7,-1502,7,-416,1,-1,8,-15,3,-813,3,331,5,-3,3,1075,5,212,7,-1852,8,0,3534,0,0,0, 
1,9667,191,1,-1383,9,-1766,4,-1387,5,-283,5,-303,6,-188,7,-815,4,-5483,4,408,0,2,4,307,2,863,1,-3222,6,-1494,9,-406,8,-1,2,-15,6,-825,6,326,7,-3,3,1066,2,228,9,-1851,0,0,3540,0,1,0, 
1,9700,192,3,-1386,0,-1768,5,-1387,2,-273,3,-303,3,-190,2,-813,9,-5187,0,402,9,-1,8,309,6,843,9,-3230,1,-1497,6,-413,1,-1,5,-15,6,-813,6,324,6,-3,6,1068,0,229,5,-1839,6,0,3546,0,2,0, 
1,9733,191,4,-1396,2,-1771,2,-1385,4,-267,6,-306,0,-189,6,-817,2,-4890,6,411,6,3,9,312,3,814,8,-3223,8,-1500,3,-422,4,-1,5,-15,3,-806,4,325,8,-3,6,1068,0,218,4,-1841,1,0,3552,0,3,0, 
1,9767,189,3,-1395,9,-1771,5,-1387,5,-272,1,-304,8,-190,5,-817,5,-4964,7,415,2,7,5,302,1,825,6,-3231,9,-1500,0,-417,6,-1,5,-15,6,-804,0,315,3,-3,6,1071,6,223,5,-1837,5,0,3558,0,4,0, 
1,9800,187,8,-1398,0,-1768,8,-1386,3,-271,2,-299,7,-184,5,-813,0,-5261,1,414,0,8,7,304,2,825,6,-3228,3,-1496,1,-410,1,-1,2,-15,6,-808,5,314,1,-3,9,1076,4,227,4,-1839,6,0,3564,0,5,0, 
1,9833,187,8,-1395,3,-1772,4,-1383,3,-270,0,-302,1,-191,1,-813,6,-5483,4,415,2,3,0,312,9,816,6,-3229,2,-1499,7,-414,0,-1,8,-15,6,-810,3,318,0,-3,6,1068,3,226,5,-1849,8,0,3570,0,6,0, 
1,9867,188,1,-1399,8,-1775,1,-1388,1,-279,3,-309,6,-191,7,-815,1,-5335,2,400,8,-5,7,298,5,804,3,-3228,0,-1500,0,-416,4,-1,2,-15,3,-828,0,300,3,-3,3,1065,3,226,8,-1882,8,0,3576,0,7,0, 
1,9900,184,5,-1403,7,-1772,1,-1392,0,-283,2,-316,2,-192,0,-819,0,-5261,1,405,3,1,2,294,6,797,7,-3237,9,-1507,2,-416,4,-1,5,-15,6,-823,8,301,2,-3,3,1066,5,231,9,-1878,9,0,3582,0,8,0, 
1,9933,184,8,-1397,1,-1767,6,-1386,6,-272,7,-315,9,-195,6,-817,2,-4890,6,409,5,-3,3,310,2,807,6,-3237,6,-1507,8,-414,6,-1,2,-15,3,-813,6,318,3,-3,3,1070,4,227,7,-1851,3,0,3588,0,9,0, 
1,9967,188,1,-1390,2,-1761,0,-1388,1,-278,4,-312,9,-190,8,-816,9,-5038,8,417,0,-3,0,304,8,809,1,-3223,5,-1508,4,-426,0,-1,2,-15,3,-812,7,318,9,-3,9,1065,9,226,2,-1850,4,0,3594,0,10,0, 
2,0,192,0,-1384,5,-1763,4,-1387,8,-278,7,-313,5,-190,8,-816,0,-5112,9,415,2,0,6,300,0,806,1,-3221,7,-1506,3,-428,1,-1,8,-15,6,-819,3,314,7,-3,6,1071,0,230,7,-1851,9,0,3600,0,11,0, 
2,33,195,3,-1379,4,-1761,0,-1386,9,-282,0,-312,0,-188,4,-812,1,-5409,3,410,1,0,6,301,5,824,1,-3225,9,-1506,3,-422,7,-1,2,-15,3,-819,3,309,3,-3,9,1081,5,227,7,-1845,3,0,3606,0,12,0, 
2,67,191,1,-1384,5,-1767,0,-1389,6,-288,3,-311,4,-189,6,-816,0,-5483,4,406,5,0,9,308,4,819,3,-3230,7,-1508,4,-419,4,-1,8,-15,3,-808,5,318,0,-3,9,1072,5,227,1,-1853,4,0,3612,0,13,0, 
2,100,190,2,-1391,7,-1770,9,-1394,7,-295,2,-316,2,-194,1,-822,0,-5187,0,401,1,-5,4,295,8,804,0,-3237,0,-1507,5,-414,9,-1,5,-15,9,-818,1,311,1,-3,9,1066,5,229,5,-1856,7,0,3618,0,14,0, 
2,133,192,6,-1388,7,-1773,9,-1395,3,-307,5,-322,2,-199,5,-818,4,-4964,7,396,0,-9,0,294,0,807,3,-3234,6,-1505,4,-415,5,-1,8,-15,6,-824,1,306,6,-3,6,1059,0,231,9,-1858,5,0,3624,0,15,0, 
2,167,192,6,-1390,8,-1772,4,-1397,7,-310,2,-321,0,-202,2,-816,3,-4964,7,397,5,-16,8,288,6,813,9,-3227,4,-1504,2,-403,5,-1,5,-15,6,-831,0,288,3,-3,6,1058,4,233,7,-1860,6,0,3630,0,16,0, 
2,200,186,3,-1396,8,-1780,8,-1401,0,-305,1,-317,7,-200,7,-815,1,-5261,1,393,3,-21,9,283,2,801,9,-3231,0,-1501,8,-400,8,-1,5,-15,6,-836,1,276,0,-3,0,1054,5,237,6,-1864,8,0,3636,0,17,0, 
2,233,187,8,-1392,0,-1770,3,-1393,2,-291,9,-310,5,-200,7,-809,4,-5483,4,401,7,-9,6,292,2,805,8,-3226,8,-1501,2,-418,5,-1,2,-15,3,-835,2,295,8,-3,9,1057,5,234,0,-1858,2,0,3642,0,18,0, 
2,267,196,2,-1384,2,-1763,4,-1390,8,-297,0,-308,1,-201,3,-806,1,-5409,3,403,8,0,3,300,3,799,8,-3223,2,-1502,1,-431,1,-1,8,-15,6,-821,4,309,6,-3,9,1071,0,222,3,-1856,7,0,3648,0,19,0, 
2,300,195,6,-1387,8,-1763,7,-1388,4,-300,3,-306,6,-196,2,-808,2,-5409,3,416,4,6,9,307,5,800,1,-3218,4,-1499,7,-422,7,-1,2,-15,3,-813,6,321,9,-3,6,1077,9,234,3,-1853,1,0,3654,0,20,0, 
2,333,194,4,-1383,3,-1772,4,-1387,8,-301,5,-307,2,-193,5,-805,2,-5112,9,419,7,0,6,303,3,801,3,-3213,0,-1494,3,-419,1,-1,5,-15,9,-818,7,321,3,-3,3,1075,5,227,7,-1848,3,0,3660,0,21,0, 
2,367,194,1,-1381,5,-1761,0,-1385,7,-294,9,-300,6,-194,1,-804,6,-4964,7,419,7,-4,2,309,9,807,3,-3216,3,-1495,8,-420,3,-1,5,-15,6,-821,7,315,6,-3,6,1071,0,229,5,-1847,1,0,3666,0,22,0, 
2,400,199,8,-1373,7,-1755,6,-1380,0,-289,8,-300,9,-188,7,-800,7,-5038,8,415,8,-1,5,313,5,818,1,-3216,9,-1496,4,-419,7,-1,5,-15,6,-816,9,315,9,-3,6,1081,8,233,1,-1850,7,0,3672,0,23,0, 
2,433,190,5,-1377,0,-1762,5,-1383,9,-293,1,-305,7,-195,9,-804,3,-5483,4,406,2,-9,6,299,7,819,9,-3213,6,-1495,5,-409,8,-1,2,-15,3,-824,7,308,7,-3,9,1077,0,240,3,-1837,5,0,3678,0,24,0, 
2,467,193,8,-1369,5,-1754,1,-1385,7,-288,3,-304,8,-189,3,-802,8,-5483,4,409,8,-16,5,294,0,832,2,-3219,3,-1493,1,-403,2,-1,2,-15,6,-834,3,304,5,-3,6,1071,9,246,3,-1839,0,0,3684,0,25,0, 
2,500,193,5,-1369,5,-1755,6,-1386,9,-285,3,-305,1,-189,3,-805,8,-5187,0,411,6,-20,4,288,0,812,7,-3220,5,-1491,9,-391,8,-1,2,-15,9,-834,9,286,8,-3,3,1064,7,252,6,-1848,0,0,3690,0,26,0, 
2,533,194,7,-1365,6,-1752,6,-1380,0,-282,6,-301,5,-191,4,-802,2,-4890,6,415,8,-2,7,295,2,803,4,-3222,6,-1496,1,-397,8,-1,2,-15,3,-821,7,290,1,-3,9,1072,2,248,7,-1844,7,0,3696,0,27,0, 
2,567,194,1,-1368,9,-1754,7,-1377,9,-292,8,-302,1,-197,4,-804,6,-5038,8,413,4,0,0,299,1,838,8,-3218,1,-1506,0,-398,4,0,9,-15,3,-826,2,306,3,-3,6,1071,6,246,3,-1831,2,0,3702,0,28,0, 
2,600,191,7,-1373,1,-1762,5,-1375,5,-284,7,-299,7,-195,6,-804,0,-5187,0,417,9,-1,2,297,3,814,8,-3212,7,-1501,5,-399,6,-1,2,-15,3,-820,5,308,7,-3,9,1075,8,246,0,-1838,4,0,3708,0,29,0, 
2,633,198,0,-1374,3,-1756,5,-1370,7,-276,0,-295,5,-196,5,-803,1,-5483,4,426,9,0,9,303,0,818,4,-3207,3,-1501,8,-410,7,-1,5,-15,3,-814,8,310,8,-3,3,1078,5,235,2,-1841,4,0,3714,0,30,0, 
2,667,196,2,-1370,1,-1750,8,-1370,7,-283,2,-298,2,-195,3,-801,9,-5261,1,426,3,-7,8,311,4,826,8,-3211,5,-1499,1,-414,3,-1,2,-15,3,-822,3,319,8,-3,3,1081,2,232,2,-1836,9,0,3720,0,31,0, 
2,700,196,5,-1371,0,-1755,3,-1377,3,-288,3,-297,9,-193,8,-799,2,-5261,1,420,9,4,5,309,9,830,7,-3216,0,-1497,6,-411,6,-1,8,-15,9,-818,1,318,9,-3,3,1081,8,244,2,-1850,1,0,3726,0,32,0, 
2,733,202,2,-1365,3,-1758,0,-1374,9,-284,7,-301,2,-191,7,-798,3,-4964,7,417,9,3,6,301,8,837,6,-3211,8,-1493,7,-405,6,-1,2,-15,3,-809,1,319,5,-3,6,1080,0,247,5,-1854,0,0,3732,0,33,0, 
2,767,200,1,-1371,3,-1759,2,-1377,3,-282,9,-303,9,-194,1,-798,0,-5038,8,425,7,6,6,304,5,828,9,-3214,8,-1500,6,-395,7,-1,5,-15,6,-809,4,315,9,-3,9,1085,1,247,8,-1829,4,0,3738,0,34,0, 
2,800,203,7,-1365,0,-1761,9,-1382,4,-288,9,-305,7,-194,4,-802,8,-5187,0,421,2,-6,6,295,5,832,2,-3209,1,-1494,3,-392,7,-1,8,-15,6,-820,2,296,1,-3,9,1069,2,244,5,-1818,3,0,3744,0,35,0, 
2,833,202,2,-1368,9,-1764,9,-1385,4,-296,4,-303,0,-192,9,-804,6,-5409,3,416,4,-14,1,291,0,838,5,-3219,6,-1491,9,-399,6,-1,8,-15,3,-829,5,297,6,-3,6,1064,4,237,9,-1824,3,0,3750,0,36,0, 
2,867,200,4,-1374,3,-1773,3,-1386,9,-291,9,-306,6,-199,2,-808,8,-5483,4,416,1,-18,3,287,4,852,3,-3204,3,-1491,6,-397,2,-1,2,-15,3,-835,5,293,7,-3,6,1068,0,230,4,-1831,5,0,3756,0,37,0, 
2,900,202,5,-1366,2,-1770,3,-1387,5,-297,9,-304,8,-199,8,-805,5,-5261,1,406,8,-13,8,276,9,842,1,-3216,6,-1494,3,-406,2,-1,8,-15,9,-829,2,287,4,-3,6,1067,4,231,6,-1847,1,0,3762,0,38,0, 
2,933,210,3,-1357,8,-1765,8,-1382,4,-294,0,-306,0,-198,6,-796,8,-4964,7,427,2,-5,4,287,1,813,3,-3217,5,-1501,5,-418,5,-1,2,-15,9,-829,2,295,2,-3,3,1079,1,230,1,-1851,9,0,3768,0,39,0, 
2,967,205,8,-1369,8,-1761,0,-1379,7,-300,3,-308,4,-198,9,-797,1,-5112,9,425,1,-3,0,301,8,820,2,-3208,5,-1499,1,-424,8,-1,2,-15,9,-823,8,307,8,-3,3,1081,5,235,8,-1841,1,0,3774,0,40,0, 
2,1000,203,4,-1380,6,-1764,9,-1379,4,-300,0,-303,9,-192,6,-797,1,-5112,9,424,2,-4,2,313,2,823,5,-3202,2,-1496,7,-414,9,-1,8,-16,2,-813,9,327,6,-3,3,1085,4,238,8,-1826,7,0,3780,0,41,0, 
2,1033,196,2,-1386,0,-1763,4,-1376,1,-294,9,-303,3,-192,3,-801,0,-5409,3,431,7,5,1,311,4,805,8,-3197,4,-1492,5,-405,0,0,9,-15,6,-809,7,326,1,-3,6,1090,5,248,7,-1809,0,0,3786,0,42,0, 
2,1067,198,3,-1383,3,-1754,7,-1375,8,-285,6,-300,9,-190,5,-798,6,-5483,4,437,4,3,0,312,6,826,5,-3196,8,-1488,6,-404,7,-1,5,-15,9,-812,1,329,4,-3,3,1091,7,249,9,-1813,5,0,3792,0,43,0, 
2,1100,193,8,-1385,4,-1755,3,-1379,7,-281,4,-299,7,-192,9,-797,1,-5112,9,437,4,0,9,307,8,822,3,-3196,8,-1492,5,-408,6,-1,5,-15,6,-816,3,318,6,-3,9,1087,2,253,5,-1819,8,0,3798,0,44,0, 
2,1133,189,3,-1386,3,-1760,7,-1377,3,-282,3,-300,9,-193,2,-801,0,-5038,8,431,1,0,9,306,3,839,7,-3203,4,-1487,4,-401,7,-2,1,-15,9,-813,9,315,9,-3,3,1081,5,253,8,-1830,9,0,3804,0,45,0, 
2,1167,186,3,-1388,7,-1771,5,-1385,7,-285,0,-305,7,-193,5,-801,0,-4890,6,423,6,-6,0,296,1,822,9,-3198,3,-1484,1,-397,2,0,9,-15,6,-821,1,304,2,-3,6,1073,4,245,4,-1838,4,0,3810,0,46,0, 
2,1200,185,7,-1389,9,-1768,5,-1383,6,-280,8,-306,0,-199,5,-800,1,-5038,8,426,6,1,8,295,2,810,6,-3215,4,-1492,8,-402,3,-1,2,-15,6,-810,9,309,9,-3,9,1078,8,244,8,-1851,3,0,3816,0,47,0, 
2,1233,188,7,-1386,0,-1758,6,-1382,4,-278,7,-304,5,-194,4,-797,4,-5335,2,433,5,6,3,297,9,828,3,-3212,4,-1495,2,-403,8,-1,5,-15,3,-812,7,307,5,-3,6,1086,3,254,7,-1853,4,0,3822,0,48,0, 
2,1267,189,0,-1384,5,-1757,4,-1389,3,-288,0,-310,2,-191,7,-803,1,-5409,3,428,4,-4,2,294,9,832,8,-3212,4,-1494,9,-395,4,-1,5,-15,6,-825,9,294,3,-3,6,1082,4,248,1,-1840,5,0,3828,0,49,0, 
